SpectraSmart Spectrum 2.9.0.0
--------- Device Information -----------
Spectrum Name :  反射率_0
Saving Time :  2024/05/01 16:55:37
Spectro-Module Model Name : SE2030-DUVN
Spectro-Module Serial Number : OS361AC55029948
Wavelength Start : 200
Wavelength End : 1025
Wavelength Unit : Wavelength(nm)
Spectrum Unit : Reflectance(%)
-----------Spectrum Setting ------------
Integration Time : 20ms
Average : 10
Boxcar : 0
Background removal :  enabled
linearity correction :  enabled
SC :  disabled
Intensity correction :  disabled
DWT denoise :  enabled
savitzky-golay :  disabled
FFT :  disabled
Running average :  disabled
Kalman :  disabled
High pass :  disabled
---------------BEGIN--------------------
Wavelength(nm)             Reflectance(%)
200.29               0
200.75        147.9405
201.21        762.2961
201.67       -354.4669
202.13       -129.5957
202.58       -49.53172
203.04       -0.555234
203.50        30.26387
203.96        45.04239
204.42        47.85581
204.88           35.21
205.34       -398.4841
205.80        129.5355
206.26        103.1624
206.72        95.47315
207.18        98.36427
207.64        74.84953
208.10        80.06715
208.55        81.40002
209.01        82.33018
209.47        84.18217
209.93         86.5947
210.39        88.41082
210.85        90.87168
211.31        97.33404
211.77        121.2327
212.23       -76.19741
212.69        49.04403
213.14        73.40222
213.60        129.2184
214.06        -435.168
214.52       -41.74807
214.98       -15.88637
215.44       -10.70256
215.90       -15.85058
216.36       -126.0251
216.81        20.13418
217.27       -37.87827
217.73        239.7293
218.19        80.15372
218.65        67.11961
219.11        69.66326
219.57        89.80539
220.02        160.6562
220.48        76.84472
220.94        39.39683
221.40        32.16927
221.86        31.24668
222.32        33.28623
222.77         38.0186
223.23        46.55454
223.69        58.38871
224.15        65.13067
224.61        62.70442
225.06        56.17406
225.52        52.04623
225.98        53.17164
226.44        59.33549
226.90        70.53757
227.36        84.36804
227.81        89.48891
228.27        82.34784
228.73         70.8166
229.19        61.62671
229.65        58.11191
230.10        59.43037
230.56        64.39249
231.02         71.5637
231.48        76.24536
231.93        75.88465
232.39         73.0444
232.85         69.6167
233.31        67.29034
233.77        66.28284
234.22        65.85783
234.68        66.00897
235.14        66.90279
235.60        68.65385
236.05        71.85288
236.51        76.53608
236.97        81.48309
237.43        84.73843
237.88         85.3112
238.34        83.71063
238.80        82.58578
239.26        82.75529
239.71        84.56225
240.17        86.03732
240.63        81.26041
241.08        68.07733
241.54        52.03971
242.00        41.29748
242.46        40.32328
242.91         49.7944
243.37        72.31892
243.83        111.6802
244.28        141.3432
244.74        131.8143
245.20        106.4974
245.66        84.45084
246.11        69.41309
246.57        57.29006
247.03         42.5426
247.48        21.12534
247.94       -3.434971
248.40         -19.613
248.85       -23.78517
249.31        -13.7911
249.77        4.471522
250.22        22.92912
250.68        38.54356
251.14        49.18259
251.59        54.39187
252.05        55.54338
252.51        52.31311
252.96        42.33387
253.42        36.60882
253.88        57.12418
254.33        77.37516
254.79        84.11312
255.25        83.42021
255.70        79.84654
256.16        76.64075
256.62        73.75735
257.07        71.25838
257.53        69.83155
257.99        68.81163
258.44        68.28924
258.90        68.97604
259.35        70.22187
259.81        71.99689
260.27        73.42513
260.72        73.40459
261.18        72.29137
261.63        70.34167
262.09        68.45427
262.55        67.08537
263.00        66.14679
263.46        65.57457
263.91        64.99098
264.37        64.34405
264.83        63.53698
265.28        62.66706
265.74        61.87745
266.19        61.02106
266.65         60.2328
267.11        59.42406
267.56        58.75621
268.02         58.6071
268.47         58.9407
268.93        59.59661
269.38        60.20008
269.84        60.10208
270.30         59.1887
270.75         57.6582
271.21        55.90435
271.66        54.38725
272.12        53.31655
272.57        52.48734
273.03        51.84972
273.48         51.2372
273.94        50.63164
274.39        50.05936
274.85        49.50645
275.31        48.82896
275.76        48.00229
276.22        47.12688
276.67          46.241
277.13        45.56979
277.58        45.05023
278.04        44.66068
278.49        44.26241
278.95        43.80214
279.40         43.1944
279.86        42.53939
280.31        41.79043
280.77        41.01786
281.22        40.18156
281.68         39.3592
282.13        38.52681
282.59        37.77314
283.04        37.06995
283.50        36.46077
283.95        35.92286
284.41        35.49791
284.86        35.16199
285.32        34.91892
285.77        34.73746
286.22        34.62803
286.68         34.5738
287.13          34.542
287.59        34.47273
288.04        34.22949
288.50        33.83817
288.95        33.30655
289.41         32.8026
289.86        32.46809
290.32        32.35602
290.77          32.394
291.22         32.4737
291.68        32.41391
292.13        32.17822
292.59        31.87009
293.04        31.57707
293.50        31.49026
293.95        31.63469
294.40        31.94925
294.86        32.37947
295.31        32.85313
295.77        33.31942
296.22        33.77899
296.68        34.18447
297.13          34.441
297.58        34.56149
298.04        34.60163
298.49         34.6206
298.95        34.76254
299.40        35.04208
299.85        35.40486
300.31        35.85926
300.76        36.40426
301.21        37.01406
301.67        37.69146
302.12        38.26415
302.58        38.49631
303.03        38.34495
303.48        37.92362
303.94        37.50235
304.39        37.40096
304.84        37.70326
305.30        38.29066
305.75        38.95766
306.20        39.40442
306.66         39.5551
307.11        39.48188
307.57        39.30971
308.02        39.16156
308.47        39.09462
308.93        39.06554
309.38        39.01325
309.83        38.90736
310.29        38.74856
310.74        38.56085
311.19         38.3761
311.65        38.21814
312.10        38.09126
312.55        37.99086
313.00        37.92431
313.46        37.90428
313.91        37.91673
314.36        37.94552
314.82        37.95745
315.27        37.91465
315.72        37.79599
316.18        37.61725
316.63        37.36937
317.08        37.05309
317.53        36.67785
317.99        36.25315
318.44        35.81498
318.89        35.43601
319.35        35.14244
319.80        34.92642
320.25         34.7578
320.70         34.5754
321.16        34.35651
321.61        34.12597
322.06        33.90536
322.51        33.73729
322.97        33.62046
323.42        33.54039
323.87        33.46169
324.32        33.34241
324.78        33.16318
325.23         32.9521
325.68        32.70726
326.13        32.43302
326.59          32.131
327.04        31.81636
327.49        31.51223
327.94        31.26968
328.39        31.09872
328.85        30.97695
329.30        30.88488
329.75        30.74693
330.20        30.54303
330.66        30.28733
331.11        30.01467
331.56        29.75072
332.01         29.5135
332.46         29.2953
332.92        29.10273
333.37        28.98083
333.82        28.92417
334.27        28.93286
334.72        28.97512
335.17        28.99269
335.63        28.95524
336.08        28.88261
336.53        28.80269
336.98        28.78094
337.43        28.82936
337.88        28.93137
338.34        29.01434
338.79         28.9778
339.24        28.79597
339.69        28.50543
340.14        28.21179
340.59        28.08161
341.05        28.13906
341.50        28.33125
341.95        28.54669
342.40        28.60488
342.85        28.46364
343.30        28.19819
343.75        27.87905
344.20         27.6124
344.66        27.44116
345.11        27.31989
345.56        27.27976
346.01        27.36681
346.46        27.56789
346.91        27.86637
347.36        28.15112
347.81        28.25017
348.26        28.13736
348.72         27.8709
349.17        27.55021
349.62        27.38185
350.07        27.41008
350.52        27.56019
350.97        27.74258
351.42        27.80859
351.87        27.71679
352.32        27.53619
352.77        27.28248
353.22        26.97552
353.67        26.64505
354.13        26.29182
354.58        25.98948
355.03        25.88901
355.48        26.00591
355.93        26.30473
356.38        26.63601
356.83        26.74094
357.28         26.5645
357.73        26.19087
358.18        25.78464
358.63        25.59674
359.08        25.67386
359.53        25.91943
359.98        26.21885
360.43         26.3801
360.88        26.34006
361.33        26.17494
361.78        25.91762
362.23        25.60822
362.68        25.27796
363.13        24.91052
363.58        24.57576
364.03        24.39809
364.48        24.39013
364.93        24.50851
365.38        24.64434
365.83        24.61873
366.28        24.39208
366.73        24.02919
367.18        23.59467
367.63        23.20255
368.08        22.90738
368.53        22.67877
368.98        22.53969
369.43        22.52366
369.88         22.6146
370.33        22.79567
370.78         22.9839
371.23        23.02765
371.68        22.88272
372.13        22.59126
372.58        22.21852
373.03        21.86792
373.48        21.57796
373.93         21.3279
374.38        21.12688
374.83        20.98955
375.28        20.91249
375.72         20.8904
376.17        20.89804
376.62        20.88427
377.07        20.83128
377.52        20.74706
377.97        20.62726
378.42        20.47156
378.87        20.29075
379.32        20.09094
379.77        19.90408
380.22        19.77889
380.67        19.72308
381.11        19.72416
381.56        19.75233
382.01        19.76036
382.46        19.73404
382.91        19.68939
383.36         19.6272
383.81        19.55237
384.26        19.46625
384.71        19.35487
385.15        19.23987
385.60        19.17631
386.05        19.16342
386.50        19.19666
386.95        19.21036
387.40        19.10185
387.85        18.86794
388.29        18.53701
388.74         18.2438
389.19        18.12084
389.64        18.18356
390.09        18.37006
390.54        18.58235
390.98        18.66073
391.43        18.57287
391.88        18.38384
392.33        18.14662
392.78        17.94178
393.23        17.79717
393.67        17.65633
394.12         17.5562
394.57        17.56961
395.02        17.66699
395.47        17.72114
395.91        17.71577
396.36        17.71648
396.81        17.72491
397.26        17.68954
397.71        17.61744
398.15        17.56674
398.60        17.56412
399.05        17.51326
399.50        17.44565
399.95        17.53606
400.39        17.72856
400.84         17.7069
401.29        17.46371
401.74         17.2711
402.18         17.1492
402.63        16.92971
403.08        16.68432
403.53        16.59881
403.97        16.68738
404.42        16.89618
404.87        17.12572
405.32        17.21734
405.76        17.13009
406.21        16.91854
406.66        16.66953
407.11        16.52277
407.55        16.52065
408.00        16.62423
408.45        16.76483
408.90        16.79962
409.34        16.70348
409.79        16.56155
410.24        16.43453
410.68         16.3692
411.13        16.38427
411.58         16.4704
412.03        16.57124
412.47        16.58329
412.92        16.48036
413.37        16.30529
413.81        16.11763
414.26        16.01579
414.71        16.01743
415.15        16.10111
415.60        16.21472
416.05        16.28954
416.49        16.30031
416.94        16.26215
417.39        16.21203
417.83        16.20846
418.28        16.26192
418.73        16.34839
419.17        16.41887
419.62        16.39182
420.07        16.26265
420.51        16.06769
420.96        15.87967
421.41        15.78307
421.85         15.7922
422.30         15.8798
422.74        16.01203
423.19        16.15549
423.64        16.28649
424.08        16.42026
424.53        16.50927
424.98        16.49852
425.42        16.38494
425.87        16.19138
426.31        15.97557
426.76        15.84125
427.21        15.80793
427.65        15.84512
428.10        15.94006
428.54        16.06051
428.99        16.18958
429.44        16.36089
429.88         16.4929
430.33        16.47178
430.77        16.29437
431.22        16.01408
431.66        15.75058
432.11        15.71798
432.56        15.89478
433.00        16.17661
433.45        16.38027
433.89        16.14705
434.34        15.50146
434.78        15.48634
435.23        16.15297
435.67        16.37235
436.12        16.14105
436.57        16.06131
437.01        16.16257
437.46        16.17893
437.90         16.1066
438.35        16.04858
438.79        16.00135
439.24         15.9172
439.68        15.82763
440.13        15.85137
440.57        15.96038
441.02        16.02941
441.46        16.04379
441.91        16.00373
442.35        15.93205
442.80        16.05597
443.24        16.28838
443.69        16.20463
444.13        15.86359
444.58        15.73082
445.02        15.81955
445.47        15.89292
445.91        15.92495
446.36        15.98611
446.80        16.06408
447.24        16.13675
447.69        16.20065
448.13        16.25164
448.58        16.28656
449.02        16.29983
449.47         16.2919
449.91        16.25253
450.36        16.19035
450.80        16.11238
451.25        16.02902
451.69        15.94381
452.13        15.86526
452.58        15.79687
453.02        15.75114
453.47        15.75695
453.91        15.81161
454.36        15.90733
454.80        16.00596
455.24        16.04496
455.69        16.01387
456.13        15.91926
456.58        15.81219
457.02        15.75041
457.46        15.75153
457.91        15.79806
458.35        15.84567
458.79        15.80011
459.24        15.65945
459.68        15.50097
460.13        15.40314
460.57        15.16957
461.01        15.25683
461.46        15.30252
461.90        15.41147
462.34        15.47205
462.79        15.55112
463.23        15.58977
463.68        15.61322
464.12        15.62518
464.56        15.63021
465.01        15.64575
465.45        15.64406
465.89        15.61044
466.34        15.55059
466.78        15.46673
467.22         15.3865
467.67         15.3836
468.11        15.40429
468.55        15.48885
468.99        15.59056
469.44        15.66772
469.88        15.71006
470.32        15.72232
470.77        15.71546
471.21        15.70539
471.65        15.69796
472.10        15.69113
472.54        15.67503
472.98        15.64455
473.42        15.60283
473.87        15.56357
474.31        15.53094
474.75        15.52628
475.20        15.55607
475.64        15.60133
476.08        15.65015
476.52        15.72316
476.97        15.82234
477.41        15.86875
477.85         15.8248
478.29        16.07962
478.74        15.94137
479.18        15.94115
479.62        15.90365
480.06        15.97698
480.50        16.17097
480.95        16.14352
481.39        16.40509
481.83        16.43598
482.27        16.40314
482.72        16.33939
483.16        16.26875
483.60        16.26839
484.04        16.33911
484.48        16.34937
484.93        16.43199
485.37          16.805
485.81        17.22266
486.25        17.71316
486.69         16.8689
487.14        16.35336
487.58        16.63639
488.02        17.29862
488.46        17.13519
488.90        17.09922
489.34        17.21664
489.79         17.0908
490.23        17.40522
490.67        17.67235
491.11        17.98188
491.55        18.01754
491.99        17.82242
492.43        17.78549
492.88        17.92876
493.32        18.00139
493.76        18.01141
494.20        18.11281
494.64        18.31505
495.08        18.55611
495.52        18.78154
495.96        18.97314
496.41        19.09492
496.85         19.0026
497.29        18.80084
497.73        18.90224
498.17        19.27664
498.61        19.45391
499.05        19.41828
499.49        19.51358
499.93         19.7372
500.37        19.88134
500.82        19.94285
501.26        20.01567
501.70        20.10516
502.14        20.18512
502.58        20.24833
503.02        20.28629
503.46        20.30242
503.90        20.30904
504.34        20.33099
504.78        20.40263
505.22        20.52945
505.66        20.69813
506.10        20.87902
506.54        21.02195
506.98         21.1108
507.42        21.15954
507.86        21.18141
508.30        21.19881
508.74          21.223
509.18         21.2486
509.62        21.28358
510.06        21.34196
510.50        21.42354
510.94        21.52297
511.38        21.62547
511.82        21.70506
512.26        21.75287
512.70        21.77465
513.14        21.77247
513.58        21.75211
514.02        21.71949
514.46        21.67492
514.90        21.63087
515.34        21.60734
515.78        21.60905
516.22        21.63271
516.66        21.66562
517.10        21.68526
517.54        21.68547
517.98        21.67178
518.42        21.65269
518.86        21.64257
519.30        21.64559
519.74         21.6563
520.18        21.66742
520.62        21.66903
521.06        21.65768
521.50        21.63478
521.93        21.60841
522.37        21.58613
522.81        21.57237
523.25        21.56648
523.69          21.556
524.13        21.52065
524.57        21.46056
525.01        21.38522
525.45        21.31775
525.89        21.29459
526.32        21.31967
526.76        21.37337
527.20        21.43292
527.64        21.46158
528.08        21.44739
528.52        21.40586
528.96        21.33461
529.40        21.23013
529.83        21.09863
530.27        20.94895
530.71        20.81602
531.15         20.7608
531.59        20.79062
532.03        20.88347
532.46         20.9878
532.90        21.02232
533.34        20.96933
533.78        20.84265
534.22        20.67873
534.66        20.56923
535.09        20.51228
535.53        20.41698
535.97        20.30385
536.41        20.27938
536.85        20.34683
537.28        20.45642
537.72        20.56599
538.16        20.62694
538.60        20.62464
539.04        20.57173
539.47        20.50881
539.91        20.51333
540.35        20.59526
540.79        20.73964
541.22        20.90637
541.66        20.99968
542.10        21.05741
542.54        21.05957
542.97        21.05505
543.41        21.10638
543.85        21.22382
544.29        21.38871
544.72        21.56936
545.16        21.72853
545.60        21.85198
546.04         21.9491
546.47        22.04202
546.91        22.16933
547.35        22.33767
547.79        22.52733
548.22        22.69428
548.66         22.8228
549.10        22.91022
549.53         22.8645
549.97        22.93464
550.41        23.04755
550.84         23.2752
551.28        23.58913
551.72        23.92924
552.15        24.17329
552.59        24.30546
553.03        24.39291
553.46        24.45418
553.90        24.53309
554.34        24.64658
554.77        24.74121
555.21        24.79938
555.65        25.06531
556.08        25.06149
556.52        25.18308
556.96        25.28127
557.39        25.37076
557.83         25.4574
558.27        25.50312
558.70        25.51831
559.14        25.64548
559.57        25.66047
560.01        25.78652
560.45        25.90642
560.88        25.92288
561.32         25.8864
561.75        25.82556
562.19        25.81568
562.63        26.08209
563.06        26.51187
563.50        26.54454
563.93         26.2347
564.37        26.18695
564.80        26.41007
565.24         26.5736
565.68        26.64763
566.11        26.74228
566.55        26.86205
566.98        26.96986
567.42        27.08515
567.85        27.21571
568.29        27.37609
568.72        27.54259
569.16        27.73441
569.60        27.91251
570.03         28.0516
570.47        28.17478
570.90        28.51661
571.34        28.33388
571.77        28.60502
572.21        28.70805
572.64        28.95576
573.08        28.86078
573.51        29.00522
573.95         29.5164
574.38        29.33825
574.82        29.43994
