SpectraSmart Spectrum 2.9.0.0
--------- Device Information -----------
Spectrum Name :  反射率_0
Saving Time :  2024/05/01 17:00:12
Spectro-Module Model Name : SE2030-DUVN
Spectro-Module Serial Number : OS361AC55029948
Wavelength Start : 200
Wavelength End : 1025
Wavelength Unit : Wavelength(nm)
Spectrum Unit : Reflectance(%)
-----------Spectrum Setting ------------
Integration Time : 20ms
Average : 10
Boxcar : 0
Background removal :  enabled
linearity correction :  enabled
SC :  disabled
Intensity correction :  disabled
DWT denoise :  enabled
savitzky-golay :  disabled
FFT :  disabled
Running average :  disabled
Kalman :  disabled
High pass :  disabled
---------------BEGIN--------------------
Wavelength(nm)             Reflectance(%)
200.29               0
200.75        301.0345
201.21        1159.478
201.67       -456.4366
202.13       -160.9545
202.58       -70.23298
203.04       -19.20022
203.50        10.16915
203.96        19.73608
204.42        10.21428
204.88       -44.45815
205.34       -1566.723
205.80        286.5457
206.26        205.3906
206.72        194.4193
207.18        300.5067
207.64       -127.8799
208.10       -20.81594
208.55       -11.93387
209.01       -14.08024
209.47       -11.24935
209.93       -3.277277
210.39        5.673335
210.85         12.4726
211.31        11.04897
211.77       -19.10611
212.23        253.9485
212.69         98.7524
213.14        109.7116
213.60        200.4393
214.06       -850.3978
214.52       -126.1704
214.98        -81.0759
215.44       -76.35863
215.90       -102.3981
216.36       -591.7266
216.81        152.0764
217.27        157.2373
217.73        -322.411
218.19       -77.46192
218.65       -68.10515
219.11       -92.41041
219.57       -187.7936
220.02       -570.6326
220.48        -273.999
220.94       -71.32675
221.40       -20.55043
221.86       -2.801311
222.32        4.219976
222.77        7.646184
223.23        9.809314
223.69        12.24754
224.15        16.21516
224.61         20.2276
225.06        22.64255
225.52         24.3954
225.98        26.58271
226.44        29.76474
226.90        34.42916
227.36        39.86313
227.81        42.00657
228.27        39.58968
228.73        35.46479
229.19        32.25031
229.65        31.35262
230.10        32.52589
230.56        35.49953
231.02        39.69938
231.48        42.87382
231.93        43.58497
232.39        42.92789
232.85        41.79902
233.31        41.10347
233.77        40.99147
234.22        41.12271
234.68        41.47395
235.14        42.24114
235.60        43.51628
236.05        45.58635
236.51        48.46679
236.97        51.18149
237.43         52.4003
237.88        51.70747
238.34         49.3941
238.80        46.76461
239.26        43.88291
239.71        40.14454
240.17        34.37618
240.63        26.24207
241.08        18.67457
241.54        14.74251
242.00        14.81179
242.46        17.85259
242.91        24.42247
243.37        36.39427
243.83        57.29365
244.28        78.13488
244.74        80.88811
245.20        72.47302
245.66        63.16047
246.11        56.35929
246.57        50.66161
247.03        43.46503
247.48        30.58577
247.94        8.888947
248.40       -16.33944
248.85        -38.5732
249.31       -45.64445
249.77       -33.08438
250.22       -11.56284
250.68        10.14104
251.14        25.73338
251.59        31.59328
252.05        28.19197
252.51        12.28628
252.96       -30.34257
253.42       -91.24307
253.88       -80.75172
254.33       -19.29845
254.79        18.30624
255.25        33.34305
255.70        38.54372
256.16        40.75888
256.62        42.04604
257.07        43.42393
257.53        45.12746
257.99        46.49281
258.44        47.42147
258.90        48.23983
259.35        48.70798
259.81        49.11108
260.27        49.15543
260.72        48.48351
261.18        47.44967
261.63        46.11415
262.09        44.91072
262.55        43.97945
263.00        43.24806
263.46        42.70151
263.91        42.22021
264.37        41.89909
264.83        41.65926
265.28        41.50011
265.74        41.31908
266.19        40.75226
266.65        39.88788
267.11        38.75967
267.56        37.72844
268.02         37.4509
268.47        37.96497
268.93        39.01239
269.38        40.07391
269.84        40.25167
270.30         39.3799
270.75        37.77117
271.21        35.92228
271.66        34.46146
272.12        33.64049
272.57        33.20821
273.03        33.07805
273.48        33.06433
273.94         33.0793
274.39        33.13721
274.85        33.15086
275.31        32.91991
275.76        32.41862
276.22        31.75376
276.67         30.9934
277.13        30.34989
277.58        29.81886
278.04        29.39137
278.49        29.02794
278.95        28.77888
279.40        28.57875
279.86         28.4475
280.31        28.27641
280.77        28.00028
281.22         27.5697
281.68        27.07849
282.13        26.52413
282.59        25.99061
283.04        25.47803
283.50        25.00833
283.95        24.61688
284.41        24.41297
284.86         24.3791
285.32        24.47873
285.77        24.60898
286.22        24.65465
286.68        24.58932
287.13        24.43265
287.59        24.20679
288.04        23.91316
288.50        23.60907
288.95        23.26901
289.41        22.99558
289.86        22.86384
290.32        22.89685
290.77        23.05372
291.22        23.24418
291.68        23.31867
292.13        23.24644
292.59        23.10342
293.04        22.95449
293.50         22.9529
293.95        23.11955
294.40        23.41285
294.86        23.79203
295.31        24.20729
295.77        24.62071
296.22        25.03437
296.68        25.41784
297.13        25.71124
297.58        25.92104
298.04        26.08386
298.49        26.22556
298.95        26.42816
299.40         26.6975
299.85        27.00621
300.31        27.37099
300.76        27.81483
301.21        28.32379
301.67        28.89305
302.12        29.40135
302.58        29.68347
303.03        29.70191
303.48        29.54036
303.94        29.37008
304.39        29.38596
304.84        29.64868
305.30        30.07976
305.75        30.57059
306.20        30.96893
306.66        31.22495
307.11         31.3624
307.57        31.41604
308.02        31.38746
308.47        31.30692
308.93        31.18177
309.38        31.01276
309.83        30.85548
310.29        30.73326
310.74        30.63596
311.19        30.57409
311.65        30.54403
312.10        30.53402
312.55        30.54532
313.00        30.56207
313.46        30.55824
313.91        30.51881
314.36        30.44263
314.82        30.33514
315.27        30.22307
315.72        30.10836
316.18        29.99147
316.63         29.8522
317.08        29.66355
317.53        29.42583
317.99         29.1592
318.44        28.89164
318.89         28.6832
319.35        28.55176
319.80        28.47795
320.25        28.44133
320.70          28.403
321.16        28.34228
321.61        28.27679
322.06        28.19886
322.51        28.10124
322.97        27.98084
323.42        27.84659
323.87        27.71287
324.32        27.61723
324.78        27.56116
325.23        27.54177
325.68        27.53017
326.13        27.48536
326.59        27.38749
327.04        27.26157
327.49        27.10679
327.94        26.93357
328.39        26.75048
328.85        26.54728
329.30         26.3577
329.75        26.20892
330.20        26.11007
330.66        26.05282
331.11        26.02203
331.56        25.95829
332.01        25.84916
332.46        25.70959
332.92        25.56473
333.37        25.48902
333.82        25.49183
334.27        25.56029
334.72        25.66342
335.17        25.74849
335.63        25.78397
336.08         25.7881
336.53        25.78671
336.98        25.83664
337.43         25.9487
337.88        26.11271
338.34        26.24966
338.79        26.24578
339.24        26.07871
339.69        25.79066
340.14        25.51731
340.59        25.47247
341.05        25.68789
341.50        26.09466
341.95        26.53998
342.40        26.77617
342.85        26.73968
343.30        26.51853
343.75        26.21679
344.20        25.99499
344.66        25.91251
345.11        25.91372
345.56        25.99288
346.01         26.1371
346.46        26.32118
346.91        26.54317
347.36        26.75319
347.81        26.87208
348.26        26.88399
348.72        26.81526
349.17        26.67693
349.62         26.5334
350.07        26.40602
350.52        26.27775
350.97        26.16051
351.42        26.06892
351.87        26.00844
352.32        25.99488
352.77        25.98591
353.22        25.91141
353.67         25.7638
354.13        25.56446
354.58        25.38425
355.03        25.36914
355.48        25.53849
355.93        25.85301
356.38         26.1741
356.83        26.26889
357.28          26.092
357.73        25.72414
358.18        25.33533
358.63        25.18073
359.08        25.30528
359.53        25.61359
359.98         25.9703
360.43        26.14674
360.88        26.07317
361.33        25.83683
361.78        25.50129
362.23        25.15368
362.68        24.83478
363.13        24.51516
363.58        24.23983
364.03        24.09031
364.48        24.07061
364.93        24.15577
365.38        24.25652
365.83        24.22487
366.28        24.02648
366.73        23.70569
367.18        23.32354
367.63        22.98933
368.08        22.74858
368.53        22.57535
368.98        22.45954
369.43        22.38313
369.88         22.3277
370.33        22.29204
370.78        22.26199
371.23        22.20922
371.68        22.12362
372.13        22.01324
372.58        21.86231
373.03        21.64911
373.48        21.37884
373.93        21.06067
374.38        20.76071
374.83        20.58937
375.28        20.56807
375.72        20.66014
376.17        20.78045
376.62        20.79083
377.07        20.65859
377.52        20.42379
377.97        20.15092
378.42        19.94321
378.87        19.82972
379.32        19.77893
379.77        19.74944
380.22        19.67906
380.67        19.55287
381.11        19.39687
381.56        19.24343
382.01        19.14738
382.46        19.12257
382.91        19.14861
383.36        19.18484
383.81        19.17368
384.26        19.09699
384.71        18.96399
385.15        18.80799
385.60        18.69942
386.05        18.64759
386.50        18.64241
386.95         18.6268
387.40        18.51468
387.85        18.30244
388.29        18.01128
388.74         17.7654
389.19        17.68085
389.64        17.77003
390.09        17.98039
390.54        18.20638
390.98        18.27842
391.43        18.16504
391.88        17.92972
392.33        17.65817
392.78        17.47753
393.23        17.41698
393.67        17.40715
394.12        17.42744
394.57        17.46416
395.02        17.47504
395.47        17.36002
395.91        17.17995
396.36        17.12083
396.81         17.2078
397.26        17.34859
397.71         17.4685
398.15        17.50082
398.60        17.45005
399.05        17.27013
399.50        17.05547
399.95        17.06122
400.39         17.2517
400.84        17.29041
401.29        17.14078
401.74        17.02054
402.18        16.93006
402.63        16.71896
403.08        16.46285
403.53        16.35172
403.97        16.40401
404.42         16.5611
404.87        16.73267
405.32        16.77649
405.76        16.65811
406.21        16.43534
406.66        16.18423
407.11        16.02524
407.55        15.99609
408.00        16.05758
408.45        16.16654
408.90        16.22432
409.34        16.20914
409.79        16.18926
410.24        16.17194
410.68        16.12618
411.13        16.06163
411.58        15.99523
412.03        15.93607
412.47        15.89747
412.92         15.8816
413.37        15.88507
413.81        15.90486
414.26        15.94881
414.71        16.00756
415.15        16.08687
415.60        16.14649
416.05        16.13811
416.49        16.05433
416.94        15.90895
417.39        15.76106
417.83        15.70515
418.28        15.76056
418.73         15.8977
419.17        16.05365
419.62        16.11842
420.07        16.07271
420.51        15.95343
420.96        15.82374
421.41        15.75697
421.85         15.7664
422.30        15.82646
422.74        15.91562
423.19        16.02062
423.64        16.12468
424.08        16.24233
424.53        16.32301
424.98        16.30341
425.42        16.18052
425.87        15.98366
426.31        15.77788
426.76        15.67672
427.21        15.70074
427.65        15.81132
428.10        15.98452
428.54        16.17352
428.99        16.34872
429.44        16.53728
429.88        16.66455
430.33        16.62918
430.77        16.43941
431.22        16.15547
431.66        15.87615
432.11        15.82308
432.56        15.98485
433.00        16.12572
433.45        16.13652
433.89        16.13063
434.34        15.95876
434.78        15.92597
435.23        16.17088
435.67        16.27962
436.12        16.29494
436.57        16.39042
437.01        16.55208
437.46        16.62202
437.90        16.57894
438.35        16.49456
438.79        16.39383
439.24        16.27198
439.68        16.17544
440.13        16.22591
440.57        16.36815
441.02        16.43916
441.46        16.42238
441.91        16.29481
442.35        16.13627
442.80        16.34115
443.24        16.78848
443.69        16.80743
444.13        16.43732
444.58        16.32253
445.02        16.47305
445.47        16.53642
445.91        16.50646
446.36        16.54688
446.80        16.65539
447.24        16.78371
447.69        16.90823
448.13        16.99274
448.58        17.02753
449.02        17.02276
449.47        16.99578
449.91        16.95945
450.36        16.92801
450.80        16.89673
451.25        16.86724
451.69        16.83037
452.13        16.78744
452.58        16.74443
453.02        16.70743
453.47        16.69555
453.91        16.70762
454.36        16.74249
454.80        16.77487
455.24        16.76356
455.69        16.70543
456.13        16.60197
456.58        16.50361
457.02        16.46363
457.46        16.49678
457.91         16.5882
458.35        16.68102
458.79        16.66057
459.24        16.52046
459.68        16.34078
460.13        16.22288
460.57        15.99008
461.01        16.12737
461.46        16.24724
461.90        16.42607
462.34        16.49025
462.79        16.50168
463.23        16.41411
463.68        16.30935
464.12        16.28098
464.56        16.34999
465.01        16.50254
465.45        16.64393
465.89        16.66946
466.34        16.56921
466.78         16.3714
467.22        16.15703
467.67        16.09397
468.11        16.15097
468.55         16.3411
468.99        16.56127
469.44        16.68297
469.88         16.6771
470.32        16.58063
470.77        16.45361
471.21        16.39104
471.65        16.41998
472.10        16.50802
472.54        16.61207
472.98        16.67828
473.42        16.69172
473.87        16.68094
474.31        16.65309
474.75        16.63397
475.20        16.63599
475.64        16.63834
476.08        16.63967
476.52        16.67717
476.97        16.75588
477.41        16.79788
477.85        16.76297
478.29        17.00553
478.74        16.87557
479.18        16.87528
479.62        16.83382
480.06        16.88895
480.50        17.05226
480.95        16.96564
481.39        17.19526
481.83        17.24279
482.27        17.28614
482.72        17.34044
483.16        17.38161
483.60        17.41494
484.04        17.44134
484.48        17.31714
484.93        17.20893
485.37        17.51812
485.81        18.07974
486.25        18.29075
486.69         17.7765
487.14        17.29793
487.58         17.7399
488.02         18.3054
488.46        17.92001
488.90        18.14181
489.34         18.0903
489.79        17.91686
490.23        18.23147
490.67        18.34482
491.11         18.4752
491.55        18.57495
491.99        18.65627
492.43        18.75754
492.88        18.86624
493.32        18.92848
493.76        18.95907
494.20        19.03698
494.64        19.17806
495.08         19.3406
495.52        19.49194
495.96        19.65323
496.41        19.79739
496.85        19.76063
497.29        19.62529
497.73        19.78864
498.17        20.20852
498.61        20.37974
499.05        20.29753
499.49        20.38862
499.93        20.63519
500.37         20.7107
500.82         20.6338
501.26        20.63407
501.70        20.72975
502.14        20.82838
502.58        20.90926
503.02        20.96872
503.46        21.00209
503.90        21.01727
504.34        21.04231
504.78        21.11683
505.22        21.24751
505.66        21.42126
506.10        21.59845
506.54        21.71396
506.98        21.75174
507.42        21.73107
507.86        21.69085
508.30        21.69229
508.74        21.75164
509.18        21.85142
509.62        21.96375
510.06        22.04213
510.50        22.07355
510.94        22.07443
511.38        22.06577
511.82        22.07999
512.26        22.12405
512.70         22.1823
513.14        22.24032
513.58        22.27754
514.02        22.28794
514.46        22.28208
514.90        22.26073
515.34        22.22421
515.78        22.17785
516.22        22.12277
516.66        22.07769
517.10        22.07137
517.54        22.10764
517.98         22.1787
518.42        22.25805
518.86        22.30043
519.30        22.29464
519.74        22.25292
520.18        22.19863
520.62        22.17083
521.06        22.17744
521.50         22.2019
521.93        22.22965
522.37        22.23227
522.81        22.20527
523.25        22.16446
523.69        22.11032
524.13        22.04099
524.57        21.96407
525.01        21.88134
525.45        21.82016
525.89        21.82472
526.32        21.89652
526.76        22.01349
527.20        22.13453
527.64        22.19198
528.08        22.16864
528.52        22.09062
528.96        21.97599
529.40        21.85433
529.83        21.74008
530.27        21.63061
530.71        21.55079
531.15        21.54563
531.59        21.61532
532.03        21.74269
532.46        21.87081
532.90           21.91
533.34        21.84261
533.78        21.68332
534.22        21.48211
534.66        21.35318
535.09        21.29906
535.53        21.22299
535.97        21.13304
536.41        21.11771
536.85        21.17636
537.28        21.26339
537.72        21.35294
538.16        21.42285
538.60        21.46192
539.04        21.47181
539.47        21.47123
539.91        21.50591
540.35        21.57869
540.79        21.68509
541.22        21.80343
541.66        21.86622
542.10        21.92176
542.54        21.93955
542.97        21.95541
543.41        22.01125
543.85        22.11156
544.29        22.24417
544.72        22.38847
545.16        22.52377
545.60        22.63922
546.04        22.73951
546.47        22.83401
546.91        22.94167
547.35        23.06685
547.79        23.19785
548.22        23.30833
548.66        23.40956
549.10         23.5026
549.53        23.48252
549.97        23.58637
550.41        23.70902
550.84        23.91691
551.28        24.19184
551.72        24.48406
552.15          24.688
552.59        24.79424
553.03        24.86348
553.46        24.91512
553.90        24.99501
554.34        25.11751
554.77        25.22935
555.21         25.3017
555.65        25.55944
556.08         25.5064
556.52        25.58323
556.96        25.66368
557.39        25.71302
557.83        25.72555
558.27        26.00965
558.70        25.94967
559.14        26.16737
559.57         26.2405
560.01        26.41239
560.45        26.55439
560.88        26.56292
561.32          26.496
561.75        26.39029
562.19        26.32878
562.63        26.52824
563.06        26.88865
563.50        26.89147
563.93        26.59027
564.37        26.54936
564.80        26.77445
565.24        26.95692
565.68        27.06287
566.11        27.18575
566.55        27.32648
566.98        27.44851
567.42        27.56991
567.85         27.6983
568.29        27.84526
568.72         27.9887
569.16        28.14628
569.60        28.28769
570.03        28.39463
570.47        28.53776
570.90        28.71511
571.34        28.69366
571.77        28.81046
572.21        28.84795
572.64        28.96732
573.08        28.94956
573.51         29.3679
573.95        29.61388
574.38        29.47203
574.82        29.52138
