SpectraSmart Spectrum 2.9.0.0
--------- Device Information -----------
Spectrum Name :  反射率_0
Saving Time :  2024/05/01 16:53:56
Spectro-Module Model Name : SE2030-DUVN
Spectro-Module Serial Number : OS361AC55029948
Wavelength Start : 200
Wavelength End : 1025
Wavelength Unit : Wavelength(nm)
Spectrum Unit : Reflectance(%)
-----------Spectrum Setting ------------
Integration Time : 20ms
Average : 10
Boxcar : 0
Background removal :  enabled
linearity correction :  enabled
SC :  disabled
Intensity correction :  disabled
DWT denoise :  enabled
savitzky-golay :  disabled
FFT :  disabled
Running average :  disabled
Kalman :  disabled
High pass :  disabled
---------------BEGIN--------------------
Wavelength(nm)             Reflectance(%)
200.29               0
200.75        396.8695
201.21        1405.127
201.67       -517.2579
202.13       -183.7202
202.58       -91.17966
203.04       -43.27917
203.50       -16.94372
203.96       -8.163734
204.42       -15.32551
204.88       -59.46251
205.34       -1312.971
205.80        218.3078
206.26        157.1913
206.72        163.0922
207.18        315.6363
207.64       -188.1234
208.10       -31.47824
208.55      -0.4456454
209.01        8.607615
209.47         8.20433
209.93        1.886626
210.39       -9.859729
210.85       -27.65152
211.31        -59.1278
211.77       -160.6035
212.23        621.6243
212.69         150.362
213.14        134.5699
213.60         225.729
214.06       -936.1796
214.52       -140.0242
214.98       -90.56396
215.44       -84.61444
215.90       -111.2719
216.36       -649.5365
216.81        196.8411
217.27        276.3778
217.73       -743.8551
218.19       -197.0114
218.65       -158.7921
219.11       -174.7397
219.57       -261.4235
220.02       -566.7452
220.48       -216.4587
220.94        -55.0942
221.40       -21.38268
221.86       -10.97803
222.32       -6.451818
222.77        -3.20218
223.23      -0.1932627
223.69        3.312571
224.15        6.392206
224.61        7.651398
225.06        7.593913
225.52         7.53831
225.98        8.372111
226.44        10.21178
226.90        13.04851
227.36        16.30255
227.81         17.2679
228.27        15.21612
228.73        12.24412
229.19        9.753559
229.65        8.184138
230.10        7.368454
230.56         7.33658
231.02        8.346347
231.48         10.7527
231.93        13.91061
232.39        16.89418
232.85        19.58847
233.31        22.21736
233.77        24.74397
234.22        27.17976
234.68        28.84379
235.14        29.02535
235.60         27.6085
236.05        24.29384
236.51        19.67365
236.97        17.13792
237.43        19.38166
237.88        26.01907
238.34        33.28982
238.80         36.2842
239.26        33.39564
239.71        23.93963
240.17        5.667773
240.63       -17.12364
241.08       -32.61575
241.54       -36.45847
242.00       -31.80263
242.46       -23.80203
242.91       -12.28454
243.37        7.350221
243.83        42.23589
244.28        80.55462
244.74        91.64012
245.20        82.57106
245.66        68.87163
246.11        56.30249
246.57        42.61338
247.03        22.50691
247.48       -9.936448
247.94        -50.0771
248.40       -79.49443
248.85       -91.60831
249.31       -80.53388
249.77        -51.9677
250.22       -20.36641
250.68        7.105937
251.14        26.00124
251.59        34.73217
252.05        35.03241
252.51        25.08713
252.96       -7.467903
253.42       -64.63003
253.88       -76.72552
254.33       -36.32208
254.79        -4.46239
255.25        12.54708
255.70        22.39842
256.16        29.44384
256.62        34.94046
257.07        39.15402
257.53        42.40493
257.99        44.69537
258.44        46.00394
258.90        46.63446
259.35        46.55812
259.81        46.19143
260.27        45.61828
260.72        45.00428
261.18        44.63496
261.63        44.24612
262.09        43.93911
262.55        43.53391
263.00        42.93365
263.46        42.26485
263.91        41.48295
264.37        40.75849
264.83        40.06337
265.28        39.40125
265.74        38.70346
266.19        37.66331
266.65        36.38237
267.11        34.89965
267.56        33.58005
268.02         33.0724
268.47        33.41103
268.93        34.33278
269.38        35.30961
269.84        35.42641
270.30        34.50569
270.75        32.85632
271.21        30.95312
271.66        29.40283
272.12        28.45215
272.57        27.86017
273.03        27.56893
273.48        27.44648
273.94        27.41317
274.39        27.47928
274.85        27.52287
275.31        27.30626
275.76        26.80081
276.22        26.11682
276.67        25.35488
277.13        24.75308
277.58        24.31398
278.04        24.00214
278.49        23.75284
278.95        23.56601
279.40        23.37457
279.86        23.21356
280.31         23.0022
280.77         22.6958
281.22        22.26268
281.68        21.77938
282.13        21.25759
282.59        20.78323
283.04        20.36188
283.50        20.01255
283.95        19.75206
284.41          19.648
284.86        19.68061
285.32         19.8181
285.77        19.99978
286.22        20.16291
286.68        20.29109
287.13        20.39074
287.59        20.43382
288.04        20.34078
288.50        20.14382
288.95         19.8395
289.41        19.58647
289.86        19.55081
290.32         19.7672
290.77        20.17343
291.22        20.61065
291.68        20.82642
292.13        20.77796
292.59        20.57892
293.04        20.38301
293.50        20.47772
293.95        20.90923
294.40        21.58783
294.86        22.38069
295.31        23.09125
295.77        23.64707
296.22        24.10334
296.68        24.49929
297.13        24.88405
297.58        25.29301
298.04        25.72022
298.49        26.16353
298.95        26.66186
299.40        27.19596
299.85        27.74972
300.31         28.3258
300.76        28.92324
301.21        29.53634
301.67        30.17704
302.12        30.74952
302.58        31.13165
303.03        31.29468
303.48        31.30133
303.94        31.33006
304.39        31.58517
304.84        32.11887
305.30        32.84676
305.75         33.6014
306.20        34.13751
306.66        34.39689
307.11        34.43894
307.57        34.37717
308.02        34.32927
308.47        34.35027
308.93        34.40404
309.38        34.44429
309.83        34.45395
310.29        34.43123
310.74        34.39187
311.19        34.34099
311.65        34.26476
312.10        34.15916
312.55         34.0267
313.00        33.90081
313.46        33.83601
313.91        33.83162
314.36        33.86707
314.82        33.88454
315.27        33.80398
315.72        33.60126
316.18        33.30935
316.63        32.96831
317.08        32.64536
317.53        32.36118
317.99         32.1064
318.44        31.85867
318.89        31.59535
319.35        31.31693
319.80        31.03714
320.25        30.78586
320.70        30.60219
321.16        30.48156
321.61        30.40856
322.06        30.33965
322.51        30.21051
322.97        29.99719
323.42        29.73196
323.87        29.42693
324.32        29.11702
324.78        28.81643
325.23        28.52555
325.68        28.26291
326.13        28.06345
326.59        27.91933
327.04        27.83565
327.49        27.74827
327.94        27.55736
328.39        27.23733
328.85        26.80133
329.30        26.33403
329.75        25.95562
330.20        25.70646
330.66        25.55414
331.11         25.4457
331.56        25.25759
332.01        24.96169
332.46        24.60087
332.92        24.23617
333.37        23.99538
333.82        23.90162
334.27        23.91752
334.72         23.9904
335.17        24.03214
335.63        23.99731
336.08        23.91961
336.53        23.81423
336.98         23.7191
337.43        23.64604
337.88        23.58239
338.34        23.49965
338.79        23.37108
339.24        23.18917
339.69        22.96995
340.14        22.76654
340.59        22.65709
341.05        22.64718
341.50        22.71635
341.95        22.79461
342.40         22.7699
342.85        22.61911
343.30        22.38681
343.75        22.13232
344.20         21.9464
344.66        21.85897
345.11        21.83149
345.56        21.85656
346.01        21.91749
346.46        21.99409
346.91        22.08493
347.36        22.14936
347.81        22.12608
348.26        22.00774
348.72        21.82065
349.17        21.58743
349.62        21.38723
350.07        21.23866
350.52        21.11487
350.97        21.00676
351.42        20.89248
351.87        20.77157
352.32        20.67921
352.77        20.57672
353.22        20.40264
353.67        20.15556
354.13        19.84279
354.58        19.57703
355.03        19.56399
355.48        19.82306
355.93        20.29915
356.38        20.75915
356.83        20.81248
357.28        20.39329
357.73        19.64523
358.18        18.87318
358.63        18.52895
359.08        18.69965
359.53        19.23235
359.98        19.89525
360.43        20.28982
360.88        20.29001
361.33        20.03209
361.78        19.63872
362.23        19.28841
362.68        19.04361
363.13        18.83379
363.58        18.66941
364.03        18.58285
364.48        18.56351
364.93        18.61242
365.38        18.65656
365.83        18.56651
366.28        18.32091
366.73        17.96197
367.18        17.56227
367.63         17.2507
368.08        17.07153
368.53        16.98668
368.98        16.97007
369.43        16.97999
369.88        16.98928
370.33        17.00272
370.78         16.9926
371.23         16.9112
371.68        16.74943
372.13        16.52142
372.58        16.25355
373.03        15.98631
373.48        15.73848
373.93        15.51071
374.38        15.32074
374.83        15.19435
375.28        15.13538
375.72        15.13285
376.17        15.16353
376.62         15.1894
377.07        15.19055
377.52        15.16469
377.97        15.10278
378.42        14.99618
378.87        14.84927
379.32        14.67226
379.77        14.47855
380.22        14.28742
380.67        14.11102
381.11        13.95408
381.56        13.83336
382.01        13.77704
382.46        13.78777
382.91        13.85448
383.36        13.94177
383.81        13.99645
384.26        13.99935
384.71        13.95347
385.15        13.87633
385.60        13.81546
386.05        13.77796
386.50        13.76058
386.95        13.73173
387.40        13.64378
387.85        13.49904
388.29        13.30785
388.74        13.16032
389.19        13.13417
389.64        13.23382
390.09        13.41805
390.54        13.60773
390.98        13.67555
391.43        13.59627
391.88        13.42402
392.33        13.21341
392.78        13.04683
393.23        12.94864
393.67        12.87058
394.12        12.83011
394.57        12.86353
395.02        12.94537
395.47        12.98856
395.91        12.98578
396.36        12.98921
396.81        13.00303
397.26        12.98516
397.71        12.94249
398.15        12.92077
398.60        12.93937
399.05        12.92704
399.50        12.89936
399.95        12.97485
400.39        13.11119
400.84        13.07689
401.29        12.87983
401.74        12.74322
402.18        12.68632
402.63        12.57906
403.08        12.45376
403.53        12.41844
403.97        12.47761
404.42        12.59812
404.87        12.72685
405.32        12.77762
405.76        12.72782
406.21        12.61213
406.66        12.47318
407.11        12.38068
407.55        12.35942
408.00        12.38945
408.45        12.44955
408.90        12.48458
409.34        12.48416
409.79        12.48909
410.24        12.50393
410.68        12.50377
411.13        12.49212
411.58        12.48413
412.03        12.46805
412.47        12.42023
412.92        12.34085
413.37        12.24208
413.81        12.15607
414.26        12.14057
414.71        12.19788
415.15        12.31587
415.60        12.44028
416.05        12.49358
416.49        12.45436
416.94        12.34653
417.39        12.21654
417.83           12.14
418.28         12.1374
418.73        12.18267
419.17        12.24761
419.62        12.27884
420.07        12.26731
420.51        12.23358
420.96        12.19874
421.41        12.17261
421.85        12.15729
422.30        12.14845
422.74        12.15907
423.19        12.22272
423.64        12.33618
424.08        12.49659
424.53        12.63917
424.98        12.67221
425.42        12.57825
425.87        12.39294
426.31        12.18614
426.76        12.07885
427.21        12.09607
427.65        12.20106
428.10        12.36086
428.54        12.51551
428.99        12.63802
429.44        12.76284
429.88        12.84939
430.33        12.83939
430.77        12.73713
431.22        12.57636
431.66        12.42125
432.11        12.40468
432.56        12.50214
433.00         12.6127
433.45        12.63967
433.89        12.46857
434.34        12.09216
434.78        12.12711
435.23        12.61477
435.67        12.80545
436.12        12.69349
436.57        12.66679
437.01        12.74549
437.46        12.75729
437.90        12.70088
438.35        12.64134
438.79        12.59236
439.24        12.54499
439.68        12.52649
440.13        12.62408
440.57        12.78225
441.02        12.85189
441.46        12.81603
441.91        12.66747
442.35        12.47554
442.80        12.55336
443.24        12.81067
443.69         12.7362
444.13        12.38775
444.58         12.2871
445.02        12.44335
445.47        12.57949
445.91        12.65647
446.36        12.74443
446.80        12.82878
447.24        12.88736
447.69        12.92378
448.13         12.9484
448.58        12.96442
449.02        12.96633
449.47        12.96014
449.91        12.94528
450.36        12.92742
450.80        12.90796
451.25        12.88404
451.69        12.83951
452.13        12.77663
452.58        12.70554
453.02         12.6396
453.47         12.6089
453.91        12.61673
454.36        12.65568
454.80        12.70735
455.24        12.73878
455.69        12.74281
456.13        12.71903
456.58        12.68977
457.02        12.67189
457.46        12.67386
457.91        12.69013
458.35        12.70008
458.79        12.65236
459.24        12.55196
459.68        12.45082
460.13        12.40385
460.57        12.23852
461.01        12.32006
461.46        12.36024
461.90        12.44718
462.34        12.49375
462.79         12.5551
463.23        12.58075
463.68        12.59227
464.12        12.59449
464.56        12.59274
465.01        12.60275
465.45        12.59848
465.89        12.56017
466.34        12.49267
466.78        12.39861
467.22        12.31217
467.67        12.31309
468.11        12.36106
468.55        12.48213
468.99        12.61897
469.44        12.70745
469.88        12.73329
470.32        12.70828
470.77        12.66056
471.21        12.63382
471.65        12.64149
472.10        12.67148
472.54        12.70042
472.98        12.70067
473.42        12.66927
473.87        12.62709
474.31        12.58573
474.75        12.57493
475.20        12.60354
475.64         12.6499
476.08         12.7041
476.52        12.78345
476.97        12.88764
477.41        12.95372
477.85        12.94231
478.29        13.15749
478.74        13.03279
479.18        13.00855
479.62        12.95508
480.06        13.01502
480.50         13.2006
480.95        13.22269
481.39        13.48925
481.83        13.55957
482.27        13.56323
482.72        13.52821
483.16        13.47318
483.60        13.46084
484.04        13.49972
484.48        13.49064
484.93        13.53403
485.37        13.81438
485.81        14.16454
486.25        14.49274
486.69        13.86832
487.14        13.53379
487.58        14.02436
488.02        14.50389
488.46        14.18579
488.90        14.48984
489.34        14.42634
489.79        14.36583
490.23        14.68895
490.67        14.95008
491.11        15.25757
491.55        15.33029
491.99        15.21404
492.43        15.22557
492.88        15.38049
493.32        15.46591
493.76        15.48814
494.20        15.58199
494.64        15.75905
495.08        15.96619
495.52        16.16674
495.96        16.36215
496.41        16.52326
496.85        16.51748
497.29          16.421
497.73          16.573
498.17        16.94284
498.61        17.12422
499.05        17.10509
499.49        17.19391
499.93        17.39318
500.37        17.51805
500.82        17.57601
501.26        17.66565
501.70         17.7935
502.14        17.93128
502.58        18.05646
503.02        18.13508
503.46        18.16435
503.90        18.16337
504.34        18.16574
504.78        18.22206
505.22        18.34311
505.66        18.50896
506.10        18.69043
506.54        18.83838
506.98        18.93496
507.42        18.99553
507.86        19.02382
508.30        19.02601
508.74        19.01222
509.18         18.9832
509.62        18.96314
510.06        18.99321
510.50        19.08083
510.94        19.21324
511.38        19.36226
511.82        19.48006
512.26        19.54942
512.70        19.57933
513.14        19.57849
513.58        19.56358
514.02         19.5436
514.46        19.51695
514.90        19.48593
515.34        19.45493
515.78        19.42857
516.22        19.41102
516.66        19.41174
517.10        19.44189
517.54        19.50018
517.98        19.57924
518.42        19.66055
518.86        19.71435
519.30        19.73117
519.74        19.71701
520.18        19.68204
520.62        19.64488
521.06        19.61172
521.50        19.57681
521.93        19.54099
522.37        19.50089
522.81        19.45866
523.25        19.41967
523.69        19.38038
524.13        19.33219
524.57         19.2765
525.01        19.21757
525.45        19.16663
525.89        19.14217
526.32          19.145
526.76        19.16236
527.20        19.18314
527.64        19.18945
528.08        19.17465
528.52        19.14739
528.96        19.09961
529.40        19.01908
529.83        18.90782
530.27        18.77611
530.71        18.65571
531.15        18.60181
531.59        18.62168
532.03        18.69502
532.46        18.77632
532.90        18.79442
533.34        18.73415
533.78        18.60725
534.22        18.44745
534.66        18.33772
535.09        18.27602
535.53        18.18157
535.97        18.06852
536.41        18.02531
536.85         18.0543
537.28        18.11352
537.72        18.17349
538.16        18.20372
538.60         18.1946
539.04        18.15524
539.47        18.11275
539.91        18.12177
540.35        18.18847
540.79        18.30355
541.22        18.44309
541.66           18.54
542.10        18.63109
542.54        18.69294
542.97         18.7528
543.41        18.84276
543.85        18.96562
544.29        19.10912
544.72        19.26352
545.16        19.42414
545.60        19.58411
546.04        19.74537
546.47        19.90111
546.91        20.04273
547.35        20.16994
547.79        20.28118
548.22        20.37593
548.66        20.49841
549.10        20.65584
549.53        20.74345
549.97        20.94821
550.41        21.14019
550.84        21.36773
551.28          21.627
551.72        21.88807
552.15        22.08019
552.59        22.20288
553.03        22.30214
553.46        22.39198
553.90        22.50962
554.34        22.66517
554.77        22.81176
555.21        22.91778
555.65        23.18213
556.08        23.16034
556.52        23.22771
556.96         23.2675
557.39        23.32547
557.83        23.41565
558.27        23.49451
558.70         23.5614
559.14        23.73062
559.57         23.7862
560.01        23.93661
560.45        24.07457
560.88        24.11178
561.32        24.09571
561.75        24.05241
562.19        24.04554
562.63        24.27693
563.06        24.64259
563.50        24.62538
563.93         24.2969
564.37        24.24916
564.80        24.49295
565.24        24.70682
565.68        24.84104
566.11        24.97048
566.55        25.09008
566.98        25.16836
567.42        25.24238
567.85        25.35069
568.29           25.51
568.72         25.6953
569.16        25.90671
569.60        26.05188
570.03        26.10075
570.47        26.19064
570.90        26.42113
571.34        26.19149
571.77        26.51782
572.21        26.64581
572.64        26.85765
573.08         26.8864
573.51        27.30224
573.95        27.38169
574.38        27.15877
574.82        27.54208
