SpectraSmart Spectrum 2.9.0.0
--------- Device Information -----------
Spectrum Name :  反射率_0
Saving Time :  2024/05/01 17:11:10
Spectro-Module Model Name : SE2030-DUVN
Spectro-Module Serial Number : OS361AC55029948
Wavelength Start : 200
Wavelength End : 1025
Wavelength Unit : Wavelength(nm)
Spectrum Unit : Reflectance(%)
-----------Spectrum Setting ------------
Integration Time : 20ms
Average : 10
Boxcar : 0
Background removal :  enabled
linearity correction :  enabled
SC :  disabled
Intensity correction :  disabled
DWT denoise :  enabled
savitzky-golay :  disabled
FFT :  disabled
Running average :  disabled
Kalman :  disabled
High pass :  disabled
---------------BEGIN--------------------
Wavelength(nm)             Reflectance(%)
200.29               0
200.75        5.964294
201.21        165.2187
201.67       -95.99027
202.13       -28.72771
202.58        2.536519
203.04        25.41328
203.50        40.65922
203.96        46.62079
204.42        44.04542
204.88        24.22095
205.34       -469.5671
205.80        102.3896
206.26        39.49053
206.72        -53.6867
207.18       -488.1782
207.64        725.0592
208.10        286.1678
208.55        171.2438
209.01        114.5015
209.47        91.21464
209.93        88.50667
210.39        95.17429
210.85         109.987
211.31        138.7368
211.77        231.1389
212.23        -507.526
212.69       -53.34569
213.14       -6.026932
213.60        32.72643
214.06       -237.0105
214.52       -41.65617
214.98       -26.05527
215.44       -18.33831
215.90       -3.973991
216.36        231.7676
216.81       -172.2028
217.27       -309.8976
217.73        813.8364
218.19        197.3698
218.65        153.1468
219.11        173.9222
219.57        286.6985
220.02        756.7292
220.48        401.7766
220.94        152.5214
221.40        91.17599
221.86        73.21813
222.32         73.0929
222.77        83.79462
223.23        105.6558
223.69        135.1911
224.15        147.3693
224.61        133.5774
225.06        111.2615
225.52        96.24257
225.98        93.82758
226.44         102.435
226.90        121.0572
227.36        146.0379
227.81        158.4077
228.27        150.5314
228.73        134.6457
229.19        121.8022
229.65        118.1586
230.10        122.7929
230.56        133.5092
231.02        147.6907
231.48        156.4806
231.93        155.0757
232.39        148.7775
232.85        140.8109
233.31        133.8263
233.77        128.5933
234.22        124.0961
234.68          121.42
235.14        121.9135
235.60        125.9249
236.05        134.6739
236.51         147.686
236.97        159.9332
237.43        165.2593
237.88        161.9722
238.34         153.333
238.80        147.4122
239.26        146.4503
239.71        150.6316
240.17        156.7558
240.63        153.5707
241.08        134.3286
241.54        107.6689
242.00         87.9249
242.46        82.99163
242.91        93.40713
243.37         122.243
243.83        172.2257
244.28        203.4109
244.74        181.0585
245.20        141.0454
245.66        110.0511
246.11        93.15813
246.57        84.82538
247.03        79.69142
247.48        73.39824
247.94        57.86061
248.40        32.79901
248.85         7.06508
249.31       -4.657681
249.77        4.727351
250.22        25.21155
250.68        47.17129
251.14        64.23087
251.59        73.93544
252.05        78.50001
252.51        79.87846
252.96        81.13137
253.42        101.8884
253.88          142.91
254.33        154.7371
254.79        148.3581
255.25        137.5759
255.70        125.9307
256.16        116.6264
256.62        109.3671
257.07        104.3341
257.53        102.1101
257.99        101.2344
258.44        101.2897
258.90        102.9491
259.35        105.3116
259.81        108.4637
260.27        111.4187
260.72        112.8858
261.18        113.1738
261.63        112.2751
262.09        111.1685
262.55        110.1515
263.00        109.1208
263.46        108.2599
263.91        107.1788
264.37        106.1022
264.83        104.9208
265.28        103.6904
265.74        102.6049
266.19        101.3755
266.65        100.1953
267.11        98.96783
267.56        97.93761
268.02        97.65245
268.47        98.05911
268.93        98.93526
269.38        99.72661
269.84         99.5196
270.30        98.14643
270.75        95.89954
271.21        93.34126
271.66        91.14069
272.12        89.58395
272.57         88.3567
273.03        87.39737
273.48        86.46561
273.94        85.54571
274.39        84.65836
274.85        83.75594
275.31        82.54744
275.76        81.00025
276.22        79.32714
276.67        77.66274
277.13        76.48196
277.58        75.69313
278.04        75.22166
278.49         74.7751
278.95        74.14758
279.40        73.18195
279.86        72.08594
280.31        70.82871
280.77        69.60336
281.22         68.3435
281.68        67.13197
282.13        65.90566
282.59        64.79169
283.04        63.72549
283.50        62.79298
283.95         61.9127
284.41        61.08805
284.86        60.28713
285.32        59.56442
285.77         58.9466
286.22        58.58071
286.68        58.44321
287.13        58.42376
287.59        58.36314
288.04        57.95441
288.50        57.20418
288.95        56.17717
289.41        55.11483
289.86        54.19484
290.32        53.52934
290.77        53.01648
291.22        52.61543
291.68        52.24185
292.13        51.84412
292.59        51.48108
293.04        51.14153
293.50        50.87432
293.95        50.65944
294.40         50.4909
294.86        50.33352
295.31        50.14931
295.77        49.93622
296.22        49.69183
296.68        49.47424
297.13         49.3242
297.58        49.27027
298.04        49.32745
298.49        49.41319
298.95        49.45112
299.40        49.40475
299.85        49.29446
300.31        49.25316
300.76        49.45219
301.21        49.90802
301.67        50.55315
302.12        51.14464
302.58        51.35108
303.03        51.09246
303.48         50.5293
303.94        49.94942
304.39        49.66605
304.84        49.77977
305.30        50.16298
305.75        50.64141
306.20        50.98252
306.66        51.12085
307.11        51.10088
307.57        50.99284
308.02        50.81554
308.47        50.61333
308.93        50.37654
309.38        50.09987
309.83        49.84936
310.29        49.65365
310.74        49.50856
311.19        49.39997
311.65        49.27895
312.10        49.12683
312.55        48.95665
313.00        48.82468
313.46        48.82022
313.91        48.93695
314.36        49.12706
314.82        49.27761
315.27        49.22746
315.72         48.9345
316.18        48.47016
316.63        47.91257
317.08        47.39933
317.53        46.97532
317.99        46.61163
318.44        46.29778
318.89        46.02159
319.35         45.7809
319.80         45.5966
320.25        45.45628
320.70        45.32845
321.16         45.1938
321.61        45.05292
322.06        44.92015
322.51        44.83524
322.97        44.78883
323.42        44.77826
323.87        44.73899
324.32         44.5826
324.78        44.28829
325.23        43.90427
325.68        43.49578
326.13        43.17572
326.59         42.9683
327.04         42.8679
327.49        42.81992
327.94        42.74248
328.39        42.60611
328.85        42.41435
329.30        42.22799
329.75        42.09473
330.20        42.02785
330.66        41.99516
331.11        41.96277
331.56        41.82902
332.01        41.57967
332.46        41.25255
332.92        40.91656
333.37        40.72878
333.82        40.71865
334.27        40.85757
334.72        41.08421
335.17        41.28741
335.63        41.40669
336.08        41.47687
336.53        41.52269
336.98        41.61166
337.43         41.7569
337.88        41.93585
338.34        42.06143
338.79        42.02785
339.24        41.80809
339.69         41.4459
340.14        41.08452
340.59        40.94523
341.05        41.06501
341.50        41.38564
341.95        41.74794
342.40        41.88956
342.85        41.75437
343.30        41.44372
343.75        41.09295
344.20        40.91162
344.66        40.95709
345.11        41.13987
345.56        41.42123
346.01        41.73186
346.46        42.02385
346.91        42.32173
347.36         42.5452
347.81        42.57127
348.26        42.39652
348.72        42.06033
349.17          41.691
349.62        41.54704
350.07        41.67321
350.52        41.98406
350.97        42.31898
351.42        42.40631
351.87        42.18744
352.32        41.78084
352.77        41.28376
353.22        40.84458
353.67        40.52105
354.13        40.26372
354.58        40.10616
355.03        40.15094
355.48        40.38881
355.93        40.80733
356.38        41.20827
356.83        41.25264
357.28        40.88167
357.73        40.19966
358.18        39.48702
358.63        39.16847
359.08        39.31915
359.53        39.79981
359.98        40.35923
360.43         40.5713
360.88        40.31896
361.33        39.75309
361.78         39.0656
362.23         38.5302
362.68        38.22551
363.13        38.06432
363.58        37.97289
364.03        37.84442
364.48        37.63804
364.93        37.38827
365.38        37.13324
365.83        36.91677
366.28        36.74525
366.73        36.60398
367.18        36.42329
367.63        36.10256
368.08        35.64326
368.53        35.09479
368.98        34.58706
369.43        34.30669
369.88        34.27819
370.33        34.43406
370.78         34.6435
371.23        34.67564
371.68        34.45959
372.13        34.07242
372.58        33.59853
373.03        33.16288
373.48        32.80928
373.93        32.49853
374.38        32.24271
374.83        32.06704
375.28        31.96905
375.72        31.94649
376.17         31.9515
376.62        31.88875
377.07        31.73591
377.52        31.50841
377.97        31.25512
378.42        31.06137
378.87        30.94429
379.32        30.87535
379.77        30.80713
380.22        30.66509
380.67        30.43874
381.11        30.16862
381.56        29.89583
382.01        29.69355
382.46        29.58659
382.91        29.54721
383.36        29.56186
383.81        29.61148
384.26        29.67318
384.71        29.74045
385.15        29.76915
385.60        29.71464
386.05        29.56491
386.50        29.34523
386.95        29.08985
387.40        28.85744
387.85        28.67167
388.29        28.49718
388.74        28.38751
389.19        28.33527
389.64        28.32909
390.09        28.36029
390.54        28.37943
390.98        28.30183
391.43        28.13132
391.88        27.89889
392.33         27.6579
392.78        27.49669
393.23         27.4319
393.67        27.38922
394.12        27.37262
394.57        27.41468
395.02        27.46092
395.47        27.33369
395.91        27.08894
396.36        26.96965
396.81        27.00706
397.26        27.08258
397.71        27.13334
398.15        27.13193
398.60        27.09582
399.05         26.9243
399.50        26.71419
399.95        26.79718
400.39        27.10302
400.84        27.12065
401.29        26.82247
401.74        26.60194
402.18        26.47518
402.63        26.18548
403.08        25.82747
403.53        25.66232
403.97        25.71056
404.42        25.90037
404.87        26.10629
405.32        26.12952
405.76        25.92621
406.21        25.57695
406.66        25.20022
407.11        24.98315
407.55        24.98133
408.00        25.13445
408.45        25.36578
408.90         25.5019
409.34        25.50268
409.79        25.48154
410.24        25.45719
410.68        25.39738
411.13        25.31908
411.58        25.23716
412.03        25.16616
412.47        25.12669
412.92        25.11768
413.37        25.14284
413.81        25.17199
414.26        25.17561
414.71        25.13892
415.15        25.07988
415.60        25.00158
416.05        24.93828
416.49        24.89878
416.94        24.86583
417.39        24.84122
417.83        24.82549
418.28        24.81736
418.73        24.82449
419.17        24.82184
419.62        24.76224
420.07        24.64988
420.51        24.49771
420.96        24.38116
421.41        24.38559
421.85        24.50961
422.30        24.72376
422.74        24.95366
423.19        25.11584
423.64        25.17856
424.08        25.17764
424.53        25.10084
424.98        24.97168
425.42        24.81601
425.87        24.63301
426.31        24.46348
426.76        24.37937
427.21        24.38641
427.65        24.46233
428.10        24.57871
428.54          24.697
428.99        24.81062
429.44        24.90321
429.88        24.91455
430.33        24.90972
430.77        24.82494
431.22        24.41013
431.66        23.85186
432.11        23.77121
432.56         24.1569
433.00         24.5749
433.45        24.77253
433.89        24.59615
434.34        23.95445
434.78        23.89084
435.23        24.56192
435.67        24.79081
436.12        24.61474
436.57        24.64008
437.01        24.86261
437.46         24.9195
437.90        24.78898
438.35        24.62303
438.79        24.46261
439.24         24.3028
439.68        24.20243
440.13        24.32212
440.57        24.58276
441.02         24.7232
441.46        24.70251
441.91        24.57343
442.35        24.39137
442.80        24.47118
443.24        24.71263
443.69        24.58767
444.13        24.16141
444.58        23.99464
445.02        24.09897
445.47        24.18892
445.91        24.24318
446.36        24.36386
446.80        24.53328
447.24        24.71501
447.69        24.88044
448.13        24.98565
448.58        25.02131
449.02        24.99118
449.47        24.92152
449.91        24.83834
450.36        24.76274
450.80        24.68775
451.25        24.61254
451.69        24.51723
452.13        24.40498
452.58        24.28997
453.02        24.18845
453.47        24.13652
453.91         24.1367
454.36        24.18669
454.80        24.25072
455.24        24.27276
455.69        24.24569
456.13        24.16698
456.58        24.09861
457.02        24.10423
457.46         24.1983
457.91        24.35775
458.35         24.5053
458.79        24.48455
459.24        24.28792
459.68        24.03623
460.13        23.86275
460.57        23.49009
461.01        23.62847
461.46        23.71711
461.90        23.89902
462.34        23.97415
462.79        24.04288
463.23         24.0263
463.68        23.99222
464.12        23.99448
464.56        24.04512
465.01        24.14985
465.45        24.23326
465.89        24.23413
466.34        24.15048
466.78        24.00024
467.22        23.83264
467.67        23.77396
468.11        23.75289
468.55        23.82808
468.99        23.93824
469.44        24.03479
469.88        24.10291
470.32         24.1498
470.77        24.18116
471.21        24.20454
471.65        24.22124
472.10        24.23252
472.54        24.22541
472.98        24.19629
473.42        24.15038
473.87        24.10169
474.31        24.06158
474.75        24.07099
475.20        24.13891
475.64         24.2344
476.08        24.32029
476.52        24.40027
476.97        24.47318
477.41        24.42241
477.85        24.22365
478.29        24.52145
478.74        24.27222
479.18        24.28158
479.62        24.24449
480.06         24.3223
480.50        24.52336
480.95        24.35671
481.39        24.64394
481.83        24.67922
482.27        24.71813
482.72        24.77385
483.16        24.82989
483.60        24.87354
484.04        24.86809
484.48        24.77434
484.93        24.81337
485.37        25.04377
485.81        25.28172
486.25        26.22191
486.69        25.46359
487.14        24.82185
487.58        25.10302
488.02        25.76727
488.46        25.47498
488.90        25.15681
489.34        25.51371
489.79        25.32203
490.23         25.8828
490.67        26.04512
491.11        26.10452
491.55        26.10113
491.99        26.07257
492.43         26.0914
492.88        26.16372
493.32         26.2425
493.76        26.32631
494.20        26.46404
494.64        26.66224
495.08        26.87882
495.52        27.07655
495.96        27.29378
496.41        27.49086
496.85        27.43477
497.29        27.22039
497.73        27.35482
498.17        27.77841
498.61        27.85799
499.05         27.6197
499.49        27.60831
499.93        27.83873
500.37        28.00694
500.82        28.09422
501.26        28.20667
501.70        28.33839
502.14        28.46106
502.58        28.55778
503.02        28.60391
503.46        28.60194
503.90        28.56864
504.34        28.54629
504.78        28.59935
505.22        28.74112
505.66        28.94989
506.10        29.18122
506.54        29.35968
506.98         29.4591
507.42        29.49817
507.86         29.4962
508.30         29.4847
508.74        29.47875
509.18        29.47298
509.62        29.46972
510.06        29.47469
510.50        29.49084
510.94        29.51989
511.38        29.56847
511.82        29.64242
512.26        29.73647
512.70        29.84265
513.14        29.93527
513.58        29.97659
514.02          29.959
514.46        29.89316
514.90        29.80538
515.34        29.73984
515.78        29.71249
516.22        29.71705
516.66        29.73884
517.10        29.75189
517.54        29.74979
517.98        29.74006
518.42        29.73989
518.86         29.7755
519.30        29.84814
519.74        29.94296
520.18        30.02894
520.62        30.06157
521.06         30.0306
521.50        29.94862
521.93        29.84578
522.37        29.76551
522.81         29.7261
523.25        29.72013
523.69        29.72613
524.13        29.70797
524.57         29.6604
525.01        29.59704
525.45        29.54625
525.89        29.55189
526.32         29.6167
526.76        29.71499
527.20        29.81049
527.64        29.84763
528.08        29.81137
528.52        29.72532
528.96        29.60174
529.40        29.45932
529.83        29.31071
530.27         29.1622
530.71        29.04209
531.15        29.00173
531.59        29.04489
532.03        29.15153
532.46        29.27077
532.90        29.32528
533.34        29.29623
533.78        29.18734
534.22        29.03121
534.66         28.9294
535.09        28.87267
535.53        28.74409
535.97        28.57634
536.41        28.52453
536.85        28.59762
537.28        28.72113
537.72        28.85029
538.16         28.9395
538.60        28.96898
539.04        28.94905
539.47        28.90934
539.91        28.91455
540.35        28.97263
540.79        29.07933
541.22        29.20677
541.66        29.26823
542.10        29.32823
542.54        29.34154
542.97        29.36236
543.41        29.45484
543.85        29.62288
544.29        29.84665
544.72        30.07316
545.16        30.23742
545.60        30.32014
546.04        30.33976
546.47        30.34739
546.91        30.43098
547.35        30.61056
547.79        30.85019
548.22        31.07491
548.66        31.23974
549.10        31.33114
549.53        31.22762
549.97        31.27139
550.41        31.36784
550.84        31.61854
551.28         31.9852
551.72        32.38068
552.15        32.63248
552.59        32.72092
553.03        32.73882
553.46        32.73278
553.90        32.79293
554.34        32.94351
554.77        33.10211
555.21        33.20743
555.65        33.52622
556.08        33.41093
556.52         33.4141
556.96        33.38078
557.39        33.39536
557.83        33.47945
558.27        33.56071
558.70        33.62501
559.14        33.81501
559.57        33.82085
560.01        33.95164
560.45        34.06189
560.88        34.03652
561.32         33.9477
561.75        33.82664
562.19        33.77724
562.63        34.10262
563.06        34.65529
563.50         34.7014
563.93        34.30298
564.37        34.23321
564.80        34.50023
565.24        34.67589
565.68        34.73001
566.11        34.82072
566.55        34.95661
566.98        35.08152
567.42        35.21359
567.85         35.3529
568.29        35.51659
568.72        35.67222
569.16        35.83889
569.60        36.00876
570.03         36.1658
570.47        36.24523
570.90         36.5244
571.34          36.488
571.77        36.68453
572.21        36.78265
572.64        36.97566
573.08        36.95939
573.51        37.46158
573.95        37.68542
574.38        37.39162
574.82        37.45404
