SpectraSmart Spectrum 2.9.0.0
--------- Device Information -----------
Spectrum Name :  反射率_0
Saving Time :  2024/05/01 16:58:44
Spectro-Module Model Name : SE2030-DUVN
Spectro-Module Serial Number : OS361AC55029948
Wavelength Start : 200
Wavelength End : 1025
Wavelength Unit : Wavelength(nm)
Spectrum Unit : Reflectance(%)
-----------Spectrum Setting ------------
Integration Time : 20ms
Average : 10
Boxcar : 0
Background removal :  enabled
linearity correction :  enabled
SC :  disabled
Intensity correction :  disabled
DWT denoise :  enabled
savitzky-golay :  disabled
FFT :  disabled
Running average :  disabled
Kalman :  disabled
High pass :  disabled
---------------BEGIN--------------------
Wavelength(nm)             Reflectance(%)
200.29               0
200.75        159.0299
201.21        514.1899
201.67        -157.738
202.13       -38.95722
202.58       -4.457808
203.04        14.37058
203.50        25.57592
203.96         31.1551
204.42        33.18253
204.88        31.02898
205.34       -51.67837
205.80        41.44766
206.26        26.38097
206.72      0.04257051
207.18       -126.4845
207.64        225.6977
208.10        97.45428
208.55        63.98277
209.01        47.35148
209.47         41.8485
209.93        43.18679
210.39        47.61742
210.85        53.82441
211.31        61.20584
211.77        76.97513
212.23       -41.97225
212.69        35.11425
213.14        51.83117
213.60        92.18082
214.06        -323.551
214.52       -32.04289
214.98       -7.843415
215.44        7.284663
215.90            37.6
216.36        465.1531
216.81       -199.5647
217.27       -262.6516
217.73        540.1567
218.19        100.8066
218.65        51.24815
219.11        20.93505
219.57       -41.55965
220.02       -271.1183
220.48       -110.2418
220.94        9.250145
221.40        40.10256
221.86          51.889
222.32        58.13222
222.77        63.40358
223.23        70.02792
223.69        76.70354
224.15        76.49478
224.61         69.1862
225.06        60.19597
225.52        55.05667
225.98        55.40255
226.44        60.64553
226.90        71.00852
227.36        84.54695
227.81        90.83978
228.27        85.95878
228.73         76.6054
229.19        69.01794
229.65         66.6511
230.10        68.89941
230.56        74.62954
231.02        82.33057
231.48        87.01316
231.93        86.08451
232.39         82.5233
232.85          78.314
233.31        75.13343
233.77        73.31924
234.22        72.20207
234.68        72.05346
235.14        73.43048
235.60         76.5734
236.05        82.23051
236.51        90.54143
236.97        99.30576
237.43         105.099
237.88        106.4851
238.34        103.9321
238.80        100.8985
239.26        98.30117
239.71        95.30788
240.17        89.93958
240.63        80.79907
241.08        70.27515
241.54        62.83294
242.00        60.52884
242.46        62.65271
242.91        69.42532
243.37        82.48507
243.83        103.9048
244.28         119.567
244.74        113.2721
245.20        98.07173
245.66        84.41796
246.11         73.7423
246.57         63.1778
247.03        48.54656
247.48         25.9894
247.94      -0.3721675
248.40       -17.71994
248.85       -22.37916
249.31       -12.91542
249.77        4.139077
250.22        21.16407
250.68        35.54956
251.14        45.89951
251.59        52.58268
252.05        57.62307
252.51        63.10468
252.96        72.76154
253.42        92.85587
253.88        105.8987
254.33        98.63626
254.79        90.14962
255.25        84.93549
255.70        81.41154
256.16        79.36224
256.62        78.28596
257.07        77.97242
257.53        78.60773
257.99        79.45214
258.44        79.93225
258.90        80.20714
259.35        79.88663
259.81        79.46114
260.27        78.86684
260.72        78.13946
261.18        77.65131
261.63        77.01001
262.09         76.4827
262.55        75.83065
263.00        74.93294
263.46        74.07384
263.91        73.09581
264.37        72.26115
264.83        71.49596
265.28        70.74375
265.74        70.09053
266.19        69.29024
266.65        68.47031
267.11         67.5987
267.56        66.82357
268.02        66.49537
268.47        66.59087
268.93        66.96059
269.38        67.32414
269.84        67.19299
270.30        66.46539
270.75        65.26597
271.21        63.85322
271.66        62.47502
272.12        61.29517
272.57        60.16908
273.03        59.12286
273.48        58.10521
273.94        57.15137
274.39        56.24638
274.85        55.40073
275.31        54.48506
275.76        53.47121
276.22        52.48568
276.67        51.50217
277.13        50.66434
277.58        49.89851
278.04         49.2128
278.49        48.56443
278.95        48.06081
279.40        47.62061
279.86        47.27551
280.31        46.83643
280.77        46.19653
281.22        45.28179
281.68        44.24615
282.13        43.16015
282.59         42.2609
283.04        41.54237
283.50        41.00259
283.95        40.55318
284.41        40.14589
284.86        39.73478
285.32        39.36952
285.77        39.05848
286.22        38.87336
286.68         38.8068
287.13        38.79636
287.59        38.76168
288.04        38.53221
288.50        38.12852
288.95        37.57699
289.41        37.04645
289.86        36.66652
290.32        36.50021
290.77        36.46907
291.22        36.50784
291.68        36.50045
292.13        36.41069
292.59         36.3196
293.04        36.23892
293.50        36.24467
293.95        36.33813
294.40        36.49502
294.86        36.73838
295.31        37.11964
295.77        37.62093
296.22        38.20311
296.68        38.76019
297.13        39.10328
297.58        39.22327
298.04        39.20615
298.49        39.15189
298.95        39.26971
299.40        39.58704
299.85        40.02557
300.31        40.55748
300.76        41.12548
301.21        41.69675
301.67        42.29621
302.12        42.78743
302.58        42.99277
303.03        42.87935
303.48        42.54073
303.94        42.21753
304.39        42.18034
304.84         42.5062
305.30        43.09097
305.75        43.74791
306.20        44.21005
306.66        44.40918
307.11        44.40154
307.57        44.29567
308.02        44.18312
308.47         44.1195
308.93        44.07603
309.38        44.00711
309.83        43.90926
310.29        43.79028
310.74        43.66097
311.19        43.54466
311.65        43.45275
312.10        43.37877
312.55        43.31672
313.00         43.2685
313.46        43.23889
313.91        43.21284
314.36        43.17936
314.82         43.1056
315.27        42.95698
315.72        42.72176
316.18        42.42553
316.63         42.0804
317.08        41.71847
317.53        41.35475
317.99        40.99183
318.44        40.64251
318.89        40.33691
319.35        40.08714
319.80        39.89168
320.25        39.73903
320.70        39.60272
321.16        39.46326
321.61         39.3288
322.06        39.19398
322.51        39.06014
322.97        38.91591
323.42        38.76757
323.87        38.59721
324.32        38.39324
324.78        38.15032
325.23        37.88904
325.68        37.61777
326.13        37.35725
326.59         37.1049
327.04        36.87371
327.49        36.65104
327.94        36.42622
328.39        36.19629
328.85        35.95591
329.30        35.73006
329.75        35.51421
330.20        35.31362
330.66        35.12193
331.11         34.9586
331.56        34.81445
332.01        34.68908
332.46        34.58007
332.92        34.48146
333.37        34.42332
333.82        34.39445
334.27        34.39399
334.72        34.39697
335.17        34.36499
335.63        34.27522
336.08        34.14582
336.53           34.01
336.98        33.94083
337.43         33.9502
337.88        34.02383
338.34        34.06903
338.79        33.95475
339.24        33.65005
339.69        33.20338
340.14        32.75685
340.59         32.5323
341.05         32.5706
341.50        32.81288
341.95        33.11215
342.40        33.22834
342.85        33.10445
343.30        32.82598
343.75         32.5128
344.20        32.35005
344.66        32.38722
345.11        32.54539
345.56         32.7694
346.01        32.96839
346.46         33.0977
346.91        33.18418
347.36        33.20816
347.81        33.13699
348.26        32.98006
348.72        32.75954
349.17        32.50945
349.62        32.33075
350.07         32.2441
350.52        32.21587
350.97        32.22116
351.42        32.20945
351.87         32.1651
352.32        32.12291
352.77        32.03865
353.22        31.84619
353.67        31.54818
354.13        31.16159
354.58        30.80625
355.03        30.70821
355.48        30.89747
355.93        31.32138
356.38         31.7553
356.83        31.81973
357.28        31.44506
357.73        30.76267
358.18        30.06337
358.63        29.77958
359.08        29.98927
359.53        30.54217
359.98        31.18991
360.43        31.51233
360.88        31.38576
361.33         30.9561
361.78        30.38919
362.23        29.92396
362.68        29.63524
363.13        29.44325
363.58        29.31246
364.03        29.19827
364.48        29.07374
364.93        28.95971
365.38        28.84541
365.83         28.6972
366.28        28.50947
366.73         28.2938
367.18        28.04165
367.63        27.75115
368.08        27.44118
368.53        27.12035
368.98         26.8554
369.43        26.74179
369.88         26.7831
370.33        26.94351
370.78        27.12256
371.23        27.14236
371.68        26.95311
372.13        26.61115
372.58        26.20239
373.03        25.85759
373.48        25.61604
373.93        25.44065
374.38        25.31412
374.83        25.20858
375.28        25.11116
375.72        25.03599
376.17        24.97211
376.62        24.88791
377.07        24.77601
377.52        24.63424
377.97        24.48178
378.42         24.3559
378.87        24.26263
379.32        24.19098
379.77        24.11463
380.22        23.99154
380.67        23.81602
381.11        23.60945
381.56        23.39995
382.01        23.23965
382.46         23.1462
382.91         23.1053
383.36        23.09451
383.81        23.08039
384.26        23.04502
384.71        22.98594
385.15        22.90576
385.60        22.82965
386.05        22.75537
386.50        22.68643
386.95        22.59048
387.40        22.42044
387.85        22.18532
388.29        21.89555
388.74        21.66503
389.19        21.58733
389.64        21.66946
390.09        21.86313
390.54        22.07923
390.98         22.1704
391.43        22.10919
391.88        21.94842
392.33        21.74103
392.78        21.57203
393.23        21.46716
393.67        21.36394
394.12        21.28942
394.57        21.30512
395.02        21.37477
395.47        21.35347
395.91        21.25489
396.36        21.21525
396.81         21.2459
397.26        21.26537
397.71        21.25219
398.15        21.22809
398.60        21.21588
399.05        21.12288
399.50         20.9965
399.95        21.05831
400.39        21.24565
400.84        21.16785
401.29         20.8411
401.74        20.63387
402.18        20.57226
402.63        20.43916
403.08        20.25817
403.53        20.15662
403.97        20.13786
404.42        20.17347
404.87        20.21187
405.32        20.17069
405.76         20.0315
406.21        19.82759
406.66        19.62356
407.11        19.52322
407.55        19.55377
408.00        19.68435
408.45         19.8453
408.90        19.88564
409.34         19.7812
409.79        19.62568
410.24        19.47656
410.68        19.37177
411.13        19.33431
411.58        19.36202
412.03        19.41917
412.47        19.43518
412.92         19.3868
413.37        19.30188
413.81        19.20788
414.26        19.15968
414.71        19.16054
415.15        19.19747
415.60        19.23045
416.05        19.21606
416.49        19.14307
416.94        19.02801
417.39        18.90278
417.83        18.81533
418.28        18.77899
418.73        18.77736
419.17        18.79103
419.62        18.78214
420.07        18.74562
420.51        18.69368
420.96        18.64832
421.41        18.61605
421.85        18.59478
422.30        18.58586
422.74        18.59288
423.19         18.6424
423.64        18.72777
424.08        18.84839
424.53        18.94687
424.98        18.95288
425.42         18.8567
425.87        18.68954
426.31        18.50352
426.76        18.39038
427.21        18.36644
427.65        18.39748
428.10          18.481
428.54        18.60536
428.99        18.75658
429.44        18.96168
429.88        19.11652
430.33        19.07708
430.77        18.83926
431.22        18.47451
431.66        18.12176
432.11        18.03586
432.56        18.19927
433.00         18.4568
433.45         18.6218
433.89        18.41168
434.34        17.80897
434.78        17.81155
435.23        18.49609
435.67        18.74354
436.12        18.55684
436.57        18.51908
437.01        18.65323
437.46        18.68426
437.90        18.60299
438.35        18.51398
438.79        18.42789
439.24        18.31329
439.68        18.21204
440.13        18.25982
440.57        18.39594
441.02         18.4449
441.46        18.39108
441.91        18.20927
442.35        17.98297
442.80        18.14108
443.24        18.54781
443.69        18.46735
444.13        17.97501
444.58        17.81678
445.02        18.00573
445.47        18.14018
445.91        18.18264
446.36        18.26454
446.80        18.37116
447.24        18.46732
447.69        18.53775
448.13        18.56038
448.58        18.53514
449.02        18.46592
449.47        18.39192
449.91        18.35922
450.36        18.38419
450.80         18.4529
451.25         18.5247
451.69        18.52124
452.13        18.43086
452.58        18.27957
453.02        18.12149
453.47        18.05353
453.91        18.09219
454.36        18.21285
454.80        18.34623
455.24        18.38162
455.69        18.29992
456.13        18.12601
456.58         17.9485
457.02        17.87508
457.46        17.93269
457.91        18.08628
458.35        18.24933
458.79        18.26008
459.24        18.10166
459.68        17.87599
460.13        17.70885
460.57        17.43009
461.01        17.57358
461.46         17.7085
461.90        17.90914
462.34        17.97389
462.79        17.96674
463.23        17.84329
463.68        17.69734
464.12        17.63843
464.56        17.69239
465.01         17.8413
465.45        17.98274
465.89        18.00374
466.34        17.89287
466.78        17.68347
467.22        17.45829
467.67        17.38946
468.11        17.44391
468.55        17.63916
468.99        17.87665
469.44        18.03864
469.88        18.09491
470.32        18.07364
470.77        18.02354
471.21        18.02184
471.65        18.08721
472.10        18.19218
472.54        18.28865
472.98        18.31717
473.42        18.26852
473.87          18.178
474.31        18.07545
474.75        18.02244
475.20        18.03822
475.64        18.09026
476.08        18.15394
476.52        18.23721
476.97        18.33745
477.41        18.36845
477.85         18.2951
478.29        18.57802
478.74        18.41919
479.18        18.42987
479.62        18.39654
480.06        18.47011
480.50         18.6649
480.95        18.60352
481.39        18.88466
481.83        18.92589
482.27        18.91197
482.72        18.85871
483.16        18.81122
483.60        18.83545
484.04        18.91895
484.48        19.07024
484.93        19.33868
485.37        19.49447
485.81        19.42895
486.25         19.9703
486.69        19.31031
487.14        18.87981
487.58        19.37246
488.02        19.86626
488.46        19.81798
488.90        20.08044
489.34        19.81831
489.79        19.64565
490.23        20.19492
490.67        20.55715
491.11        20.86434
491.55        20.83505
491.99          20.564
492.43        20.52997
492.88        20.76704
493.32        20.95635
493.76        21.06104
494.20        21.20789
494.64        21.39602
495.08         21.5661
495.52        21.70978
495.96        21.88956
496.41        22.08123
496.85        22.11549
497.29        22.05334
497.73        22.22039
498.17        22.59135
498.61        22.79725
499.05        22.81841
499.49        22.91894
499.93        23.09914
500.37        23.19653
500.82        23.23262
501.26        23.32017
501.70        23.46902
502.14        23.64512
502.58        23.81056
503.02         23.9077
503.46        23.92694
503.90        23.89346
504.34        23.85148
504.78        23.86865
505.22         23.9639
505.66        24.11765
506.10        24.29386
506.54        24.43235
506.98        24.51324
507.42        24.55225
507.86        24.57288
508.30        24.61158
508.74        24.67861
509.18        24.76261
509.62        24.84379
510.06        24.89167
510.50        24.90063
510.94        24.88318
511.38        24.86518
511.82        24.88622
512.26        24.95246
512.70        25.04652
513.14        25.14214
513.58        25.19827
514.02        25.20495
514.46        25.17956
514.90        25.13246
515.34        25.08086
515.78         25.0354
516.22        24.99046
516.66        24.96445
517.10        24.98573
517.54        25.05506
517.98        25.16494
518.42        25.27689
518.86        25.32538
519.30         25.2966
519.74        25.20943
520.18        25.10456
520.62        25.04906
521.06        25.05709
521.50        25.10271
521.93         25.1587
522.37        25.17526
522.81         25.1405
523.25        25.07626
523.69        24.98566
524.13        24.87153
524.57        24.74392
525.01        24.60255
525.45        24.47997
525.89        24.42777
526.32        24.45172
526.76        24.53522
527.20        24.63083
527.64        24.65912
528.08        24.60234
528.52        24.48709
528.96        24.35248
529.40        24.26159
529.83        24.22714
530.27        24.22963
530.71        24.25094
531.15        24.27011
531.59        24.27544
532.03        24.27461
532.46        24.24911
532.90        24.17396
533.34        24.05286
533.78        23.87939
534.22        23.69365
534.66        23.59715
535.09        23.57974
535.53        23.54216
535.97         23.4765
536.41        23.45312
536.85        23.46859
537.28        23.47786
537.72        23.48049
538.16        23.50036
538.60         23.5365
539.04        23.57759
539.47        23.62134
539.91        23.67997
540.35        23.74889
540.79         23.8396
541.22        23.94182
541.66        24.00239
542.10        24.08086
542.54        24.13252
542.97        24.19821
543.41        24.32779
543.85        24.52095
544.29        24.76091
544.72        25.00383
545.16        25.19457
545.60        25.31715
546.04        25.38821
546.47        25.44237
546.91        25.54156
547.35        25.70101
547.79        25.89277
548.22        26.07476
548.66        26.24011
549.10        26.38321
549.53        26.39562
549.97        26.53528
550.41        26.67018
550.84         26.8761
551.28        27.13526
551.72        27.41824
552.15        27.65041
552.59        27.82745
553.03        28.00234
553.46        28.16206
553.90        28.30433
554.34        28.43382
554.77        28.50679
555.21        28.51653
555.65        28.76432
556.08        28.71349
556.52         28.8142
556.96        28.90029
557.39        28.99594
557.83        29.10823
558.27        29.19156
558.70          29.254
559.14        29.45067
559.57        29.51687
560.01        29.70596
560.45        29.87421
560.88        29.89494
561.32        29.82573
561.75        29.71396
562.19         29.6571
562.63        29.91063
563.06        30.36011
563.50        30.40474
563.93        30.09593
564.37        30.07038
564.80        30.33354
565.24         30.5331
565.68        30.63862
566.11        30.77246
566.55        30.93793
566.98        31.08553
567.42        31.23064
567.85        31.37508
568.29        31.53284
568.72        31.67563
569.16        31.82183
569.60         31.9466
570.03         32.0355
570.47        32.07626
570.90        32.32949
571.34        32.17945
571.77        32.42411
572.21        32.49936
572.64        32.65354
573.08        32.69401
573.51        33.22128
573.95        33.33148
574.38        32.99415
574.82        33.15866
