SpectraSmart Spectrum 2.9.0.0
--------- Device Information -----------
Spectrum Name :  反射率_0
Saving Time :  2024/05/01 16:57:38
Spectro-Module Model Name : SE2030-DUVN
Spectro-Module Serial Number : OS361AC55029948
Wavelength Start : 200
Wavelength End : 1025
Wavelength Unit : Wavelength(nm)
Spectrum Unit : Reflectance(%)
-----------Spectrum Setting ------------
Integration Time : 20ms
Average : 10
Boxcar : 0
Background removal :  enabled
linearity correction :  enabled
SC :  disabled
Intensity correction :  disabled
DWT denoise :  enabled
savitzky-golay :  disabled
FFT :  disabled
Running average :  disabled
Kalman :  disabled
High pass :  disabled
---------------BEGIN--------------------
Wavelength(nm)             Reflectance(%)
200.29               0
200.75        410.0071
201.21         1490.48
201.67       -568.5238
202.13       -207.8089
202.58       -105.6676
203.04       -52.12651
203.50       -23.67717
203.96       -18.06825
204.42       -36.78802
204.88       -121.1032
205.34       -2401.951
205.80        374.8271
206.26        254.5171
206.72        239.1512
207.18        382.2814
207.64       -160.2059
208.10       -12.27436
208.55        5.436112
209.01        4.281189
209.47       0.7091769
209.93        -3.30693
210.39       -10.27084
210.85       -23.29089
211.31       -54.20113
211.77       -169.3524
212.23        744.0469
212.69        196.9293
213.14        181.8111
213.60         298.104
214.06       -1163.794
214.52       -161.7473
214.98       -100.1264
215.44       -94.41172
215.90       -135.1197
216.36       -906.8651
216.81        283.8875
217.27        344.8093
217.73       -760.1488
218.19       -182.3735
218.65       -159.9405
219.11       -219.7716
219.57       -450.6325
220.02       -1394.042
220.48       -706.6917
220.94       -207.2917
221.40       -81.43461
221.86        -38.0115
222.32       -22.16276
222.77       -16.96153
223.23       -17.03592
223.69       -20.26254
224.15        -21.3999
224.61       -18.53786
225.06       -15.10702
225.52       -12.42827
225.98       -10.17502
226.44       -7.910439
226.90       -5.073007
227.36       -1.941853
227.81      -0.7728362
228.27       -2.290472
228.73        -4.80907
229.19         -7.2297
229.65       -9.326267
230.10       -11.26561
230.56       -12.95924
231.02       -13.79574
231.48       -12.24635
231.93       -8.366521
232.39       -3.792412
232.85       0.7432809
233.31        4.987189
233.77        8.761112
234.22        12.09679
234.68        14.36637
235.14        15.03348
235.60         14.0088
236.05        10.98053
236.51        6.055715
236.97        1.114981
237.43       -1.656144
237.88       -1.605792
238.34      -0.2974232
238.80       -1.103207
239.26         -5.5611
239.71       -14.38229
240.17       -27.91587
240.63        -40.6367
241.08       -43.56199
241.54       -36.45862
242.00       -25.79409
242.46       -16.51081
242.91        -7.65889
243.37        3.107018
243.83        20.32812
244.28        42.10692
244.74        52.02057
245.20        50.56605
245.66        44.40681
246.11         35.8042
246.57        23.51169
247.03        4.045415
247.48       -27.64326
247.94       -64.46638
248.40       -87.63409
248.85       -93.80558
249.31       -79.13162
249.77       -49.83355
250.22       -19.23203
250.68        6.727078
251.14         23.9988
251.59        30.85918
252.05        28.38572
252.51        12.77521
252.96       -32.09073
253.42       -104.8261
253.88       -111.2032
254.33       -51.92678
254.79       -11.13048
255.25        5.987741
255.70        12.64239
256.16        15.93973
256.62        19.12955
257.07        23.92001
257.53        29.40956
257.99        34.30476
258.44        37.71603
258.90         39.2042
259.35        38.97186
259.81        37.87795
260.27        36.43472
260.72        35.34977
261.18        34.93483
261.63        34.71061
262.09        34.55516
262.55        34.12319
263.00        33.34645
263.46        32.45752
263.91        31.48341
264.37        30.60039
264.83        29.81205
265.28        29.08861
265.74        28.41813
266.19        27.63195
266.65        26.80188
267.11        25.93289
267.56        25.19703
268.02        24.93395
268.47         25.1356
268.93         25.6271
269.38        26.13137
269.84        26.14009
270.30        25.55882
270.75        24.55569
271.21        23.34582
271.66        22.15858
272.12        21.15436
272.57        20.23089
273.03        19.51265
273.48        19.15415
273.94        19.14079
274.39        19.39324
274.85        19.66933
275.31        19.58728
275.76        19.09669
276.22        18.36443
276.67        17.56695
277.13        17.01009
277.58        16.71948
278.04        16.60947
278.49        16.58293
278.95        16.57788
279.40        16.51477
279.86        16.43709
280.31        16.28553
280.77        16.02095
281.22         15.6317
281.68         15.1832
282.13        14.70157
282.59        14.27233
283.04        13.91219
283.50        13.63511
283.95        13.46803
284.41        13.47568
284.86        13.64089
285.32        13.92507
285.77        14.25749
286.22        14.55303
286.68        14.79113
287.13        14.97507
287.59        15.09925
288.04        15.12281
288.50        15.07333
288.95        14.93987
289.41        14.81961
289.86        14.80436
290.32        14.92611
290.77        15.16523
291.22        15.44742
291.68        15.64984
292.13        15.75655
292.59        15.83497
293.04         15.9639
293.50        16.30738
293.95        16.87941
294.40         17.6272
294.86        18.46008
295.31        19.25082
295.77        19.94477
296.22        20.56808
296.68        21.14131
297.13        21.69507
297.58        22.25546
298.04        22.82751
298.49        23.40451
298.95        24.01044
299.40        24.62785
299.85        25.24497
300.31        25.87922
300.76         26.5588
301.21        27.28074
301.67        28.04355
302.12        28.74186
302.58        29.23341
303.03        29.48224
303.48        29.56085
303.94        29.63542
304.39        29.89594
304.84        30.40013
305.30        31.07129
305.75        31.78376
306.20        32.35593
306.66        32.73547
307.11        32.95744
307.57         33.0817
308.02        33.14808
308.47        33.19436
308.93        33.20967
309.38        33.18421
309.83        33.15738
310.29        33.14457
310.74        33.14534
311.19        33.14879
311.65        33.11706
312.10        33.03923
312.55        32.92739
313.00        32.82336
313.46        32.79241
313.91        32.83508
314.36        32.92327
314.82        32.98755
315.27        32.93165
315.72        32.72653
316.18         32.4089
316.63        32.02897
317.08        31.66843
317.53        31.35172
317.99        31.06622
318.44        30.78157
318.89        30.46307
319.35        30.10955
319.80        29.74024
320.25        29.39875
320.70        29.14223
321.16        28.97393
321.61        28.88033
322.06        28.80127
322.51        28.64582
322.97        28.38197
323.42         28.0375
323.87         27.6627
324.32        27.35571
324.78        27.13829
325.23        26.99534
325.68         26.8588
326.13        26.62431
326.59        26.26245
327.04        25.82038
327.49         25.3638
327.94        25.01223
328.39        24.79783
328.85        24.67504
329.30        24.59331
329.75        24.43877
330.20        24.17708
330.66        23.83965
331.11        23.47218
331.56        23.12384
332.01        22.82003
332.46        22.54405
332.92        22.29647
333.37        22.10721
333.82          21.968
334.27        21.88339
334.72        21.82687
335.17        21.74839
335.63        21.62437
336.08        21.47226
336.53        21.32019
336.98        21.22832
337.43        21.20765
337.88        21.24315
338.34        21.27062
338.79        21.19782
339.24        21.00005
339.69        20.70437
340.14        20.40314
340.59        20.24287
341.05        20.24296
341.50         20.3593
341.95        20.48203
342.40        20.43428
342.85         20.1815
343.30        19.80051
343.75        19.38536
344.20         19.0759
344.66         18.9213
345.11        18.86937
345.56        18.91224
346.01        19.03294
346.46        19.19847
346.91        19.39575
347.36        19.56104
347.81        19.59912
348.26        19.49264
348.72        19.27747
349.17        18.97581
349.62        18.66781
350.07        18.38626
350.52        18.11548
350.97         17.8834
351.42        17.72733
351.87        17.65415
352.32        17.67045
352.77        17.70713
353.22        17.65278
353.67        17.48595
354.13        17.23103
354.58        16.97568
355.03         16.8868
355.48        16.98962
355.93        17.23971
356.38        17.48929
356.83        17.49146
357.28        17.20732
357.73        16.73609
358.18        16.26899
358.63        16.08721
359.08        16.24076
359.53        16.62193
359.98        17.08843
360.43        17.39766
360.88         17.4621
361.33         17.3609
361.78        17.13415
362.23        16.83895
362.68        16.51512
363.13        16.14604
363.58        15.79869
364.03        15.59346
364.48        15.54914
364.93         15.6308
365.38        15.75394
365.83        15.77517
366.28        15.65521
366.73        15.43926
367.18        15.15743
367.63         14.8654
368.08        14.60118
368.53        14.35672
368.98        14.16574
369.43        14.07961
369.88        14.09579
370.33        14.19185
370.78        14.32304
371.23        14.40284
371.68        14.39604
372.13        14.32511
372.58        14.18445
373.03        13.96935
373.48        13.69554
373.93         13.3694
374.38        13.06345
374.83        12.90008
375.28        12.90534
375.72        13.04358
376.17         13.2279
376.62        13.32063
377.07        13.28277
377.52        13.14711
377.97        12.96331
378.42        12.81289
378.87        12.72047
379.32        12.66378
379.77        12.60969
380.22        12.50849
380.67        12.35553
381.11        12.17958
381.56        12.02681
382.01        11.97166
382.46        12.02832
382.91        12.16421
383.36        12.32469
383.81        12.43108
384.26        12.45419
384.71        12.40504
385.15        12.30384
385.60        12.20008
386.05        12.10696
386.50        12.02599
386.95        11.93248
387.40        11.78916
387.85        11.60486
388.29        11.39219
388.74        11.24556
389.19        11.25075
389.64        11.41011
390.09        11.67696
390.54        11.95581
390.98        12.09361
391.43        12.05388
391.88        11.89372
392.33        11.67894
392.78        11.50941
393.23         11.4138
393.67        11.34293
394.12        11.30299
394.57        11.31084
395.02         11.3431
395.47        11.33242
395.91        11.28823
396.36        11.27684
396.81        11.30632
397.26        11.33029
397.71        11.34083
398.15        11.35726
398.60           11.39
399.05        11.38179
399.50        11.34982
399.95        11.40323
400.39        11.50683
400.84        11.45558
401.29        11.25962
401.74        11.12087
402.18        11.05719
402.63        10.95388
403.08        10.83668
403.53          10.795
403.97        10.83035
404.42        10.91431
404.87        10.99757
405.32        10.99991
405.76        10.90261
406.21         10.7403
406.66        10.55689
407.11        10.42371
407.55        10.36594
408.00        10.36366
408.45        10.39918
408.90        10.42573
409.34        10.43189
409.79        10.44933
410.24        10.47386
410.68        10.47251
411.13        10.44528
411.58        10.40698
412.03        10.35338
412.47        10.27663
412.92        10.18333
413.37        10.08225
413.81        9.998719
414.26        9.977562
414.71        10.01961
415.15        10.11687
415.60        10.22439
416.05        10.27883
416.49        10.25988
416.94        10.18273
417.39        10.08384
417.83        10.02383
418.28        10.01912
418.73        10.05165
419.17        10.09067
419.62        10.07912
420.07        10.01185
420.51        9.910018
420.96         9.81779
421.41         9.78217
421.85        9.808037
422.30        9.876789
422.74        9.962339
423.19        10.03622
423.64        10.08391
424.08        10.11818
424.53        10.11734
424.98        10.06444
425.42        9.966252
425.87        9.841478
426.31         9.71682
426.76        9.646146
427.21        9.635783
427.65        9.664036
428.10        9.739465
428.54        9.870334
428.99        10.03901
429.44        10.25234
429.88        10.41631
430.33        10.39675
430.77        10.18931
431.22         9.85274
431.66        9.513692
432.11        9.393348
432.56        9.505421
433.00        9.769742
433.45        10.03243
433.89        9.986332
434.34        9.612937
434.78        9.581841
435.23        9.956578
435.67        10.09178
436.12        9.996501
436.57        10.02198
437.01        10.15037
437.46        10.15542
437.90        10.02395
438.35        9.847327
438.79        9.674358
439.24        9.550908
439.68        9.512919
440.13        9.607172
440.57        9.778552
441.02        9.891058
441.46         9.91699
441.91        9.851167
442.35        9.739024
442.80        9.815784
443.24        10.01062
443.69        9.926769
444.13        9.616475
444.58        9.498367
445.02        9.584327
445.47        9.660095
445.91        9.703988
446.36        9.779765
446.80        9.876278
447.24        9.972075
447.69        10.05508
448.13        10.11095
448.58        10.13431
449.02         10.1243
449.47        10.09398
449.91        10.05771
450.36        10.02473
450.80         9.99339
451.25        9.955204
451.69        9.887433
452.13        9.792221
452.58          9.6847
453.02        9.587978
453.47        9.544557
453.91        9.560106
454.36        9.620547
454.80        9.699014
455.24        9.748512
455.69         9.75621
456.13        9.726536
456.58        9.681849
457.02        9.643342
457.46        9.621147
457.91        9.608587
458.35        9.589287
458.79        9.523647
459.24        9.417447
459.68        9.310938
460.13        9.250422
460.57        9.110341
461.01        9.165038
461.46        9.198899
461.90        9.272625
462.34        9.310514
462.79         9.35125
463.23        9.357308
463.68        9.356424
464.12        9.370439
464.56        9.404632
465.01        9.462129
465.45         9.50302
465.89        9.482456
466.34        9.402032
466.78        9.273181
467.22        9.145382
467.67        9.120028
468.11        9.177297
468.55        9.323052
468.99        9.492061
469.44        9.601254
469.88        9.630422
470.32        9.598909
470.77        9.537038
471.21        9.490511
471.65        9.476956
472.10        9.482821
472.54        9.494295
472.98        9.497606
473.42         9.49088
473.87        9.489635
474.31        9.493713
474.75         9.51111
475.20        9.544925
475.64        9.580943
476.08        9.620701
476.52         9.69211
476.97         9.79765
477.41        9.885841
477.85         9.91351
478.29        10.09432
478.74        9.990468
479.18        9.944798
479.62        9.874624
480.06         9.91604
480.50         10.0822
480.95        10.14102
481.39        10.38815
481.83         10.4577
482.27        10.44738
482.72        10.39372
483.16        10.32439
483.60        10.31962
484.04        10.38972
484.48        10.42956
484.93        10.52405
485.37        10.85449
485.81        11.21707
486.25        11.60132
486.69        10.81452
487.14        10.54453
487.58        11.07322
488.02        11.41365
488.46          11.271
488.90        11.63082
489.34        11.29026
489.79        11.37345
490.23        11.94019
490.67        12.18365
491.11        12.20425
491.55        12.17031
491.99        12.15169
492.43        12.18751
492.88        12.29406
493.32        12.41521
493.76        12.53384
494.20        12.67345
494.64        12.83338
495.08        12.99017
495.52        13.13481
495.96        13.30538
496.41        13.48669
496.85        13.55434
497.29        13.54751
497.73        13.71575
498.17        14.02723
498.61        14.15498
499.05        14.10895
499.49        14.17453
499.93        14.36148
500.37        14.50849
500.82         14.6053
501.26        14.70564
501.70        14.80928
502.14        14.90321
502.58        14.98383
503.02          15.046
503.46         15.0928
503.90        15.13069
504.34        15.17817
504.78        15.26233
505.22         15.3868
505.66        15.54124
506.10        15.70079
506.54        15.82343
506.98        15.89653
507.42         15.9322
507.86        15.94464
508.30        15.95734
508.74        15.98066
509.18        16.00953
509.62        16.04738
510.06        16.09949
510.50        16.16521
510.94        16.24389
511.38        16.32622
511.82        16.39587
512.26        16.44571
512.70        16.47451
513.14        16.48645
513.58        16.49076
514.02        16.49068
514.46        16.48679
514.90        16.47154
515.34        16.43233
515.78        16.37193
516.22        16.29994
516.66        16.24012
517.10        16.22698
517.54        16.26623
517.98        16.34546
518.42        16.43964
518.86        16.50696
519.30        16.53321
519.74        16.52727
520.18        16.50037
520.62        16.47283
521.06         16.4502
521.50        16.42312
521.93        16.38974
522.37         16.3442
522.81        16.28827
523.25        16.22979
523.69        16.16663
524.13        16.09193
524.57        16.00911
525.01        15.92308
525.45        15.84936
525.89         15.8125
526.32        15.81375
526.76        15.83814
527.20        15.86834
527.64        15.87581
528.08         15.8514
528.52        15.80703
528.96        15.73946
529.40        15.64444
529.83        15.52636
530.27        15.39132
530.71        15.26995
531.15        15.21521
531.59        15.23292
532.03        15.30412
532.46        15.38103
532.90        15.38717
533.34        15.30777
533.78         15.1596
534.22        14.98243
534.66        14.86197
535.09        14.80171
535.53        14.73175
535.97        14.65804
536.41        14.64331
536.85        14.68641
537.28          14.756
537.72        14.82844
538.16        14.88039
538.60        14.90223
539.04        14.89632
539.47        14.88389
539.91        14.90961
540.35        14.97885
540.79        15.08784
541.22        15.21051
541.66        15.28101
542.10        15.33093
542.54        15.34414
542.97        15.36612
543.41        15.45878
543.85        15.62859
544.29        15.85494
544.72        16.09448
545.16        16.28798
545.60        16.41956
546.04        16.50674
546.47        16.58213
546.91        16.70221
547.35        16.87929
547.79        17.08821
548.22        17.28983
548.66        17.46501
549.10        17.60721
549.53        17.64607
549.97        17.76704
550.41        17.90048
550.84        18.10048
551.28        18.35158
551.72        18.61373
552.15        18.80376
552.59        18.91552
553.03        18.99874
553.46        19.07642
553.90        19.19528
554.34        19.36732
554.77        19.54518
555.21        19.69314
555.65         19.9704
556.08        19.98841
556.52        20.07139
556.96        20.12229
557.39        20.18569
557.83         20.2767
558.27        20.36009
558.70        20.42906
559.14        20.57278
559.57        20.60376
560.01        20.70548
560.45        20.80618
560.88         20.8575
561.32        20.90067
561.75        20.95787
562.19        21.04828
562.63        21.26549
563.06        21.52292
563.50        21.45495
563.93        21.14428
564.37        21.07712
564.80         21.2733
565.24        21.48504
565.68        21.66356
566.11        21.84299
566.55        22.01163
566.98        22.15087
567.42         22.2844
567.85        22.43225
568.29        22.60848
568.72        22.78726
569.16        22.97285
569.60        23.11482
570.03        23.19488
570.47        23.25027
570.90        23.49692
571.34        23.33043
571.77        23.61331
572.21         23.7567
572.64        24.00823
573.08        24.01982
573.51        24.27951
573.95        24.59452
574.38         24.4323
574.82        24.60811
