SpectraSmart Spectrum 2.9.0.0
--------- Device Information -----------
Spectrum Name :  反射率_0
Saving Time :  2024/05/01 17:24:33
Spectro-Module Model Name : SE2030-DUVN
Spectro-Module Serial Number : OS361AC55029948
Wavelength Start : 200
Wavelength End : 1025
Wavelength Unit : Wavelength(nm)
Spectrum Unit : Reflectance(%)
-----------Spectrum Setting ------------
Integration Time : 20ms
Average : 10
Boxcar : 0
Background removal :  enabled
linearity correction :  enabled
SC :  disabled
Intensity correction :  disabled
DWT denoise :  enabled
savitzky-golay :  disabled
FFT :  disabled
Running average :  disabled
Kalman :  disabled
High pass :  disabled
---------------BEGIN--------------------
Wavelength(nm)             Reflectance(%)
200.29               0
200.75        197.8278
201.21        876.9689
201.67        -376.263
202.13       -137.1076
202.58       -58.76112
203.04       -12.47682
203.50        14.70211
203.96        22.80145
204.42        11.70218
204.88       -45.62484
205.34        -1608.48
205.80        288.3109
206.26        198.0781
206.72        170.6584
207.18        185.7201
207.64        44.20797
208.10        61.29935
208.55        52.11136
209.01        40.96991
209.47        33.85034
209.93        29.92226
210.39        25.20955
210.85        18.77522
211.31        7.352154
211.77       -30.47559
212.23        250.6312
212.69        82.59879
213.14         83.6022
213.60        143.0689
214.06       -571.0663
214.52        -78.5873
214.98       -44.86025
215.44       -34.48893
215.90       -29.50359
216.36       -43.87961
216.81       0.3298218
217.27        49.39502
217.73       -300.0375
218.19       -107.9967
218.65       -96.30018
219.11       -105.3246
219.57       -139.1279
220.02       -203.6878
220.48       -8.651027
220.94        24.96944
221.40        25.45473
221.86        26.15793
222.32        31.84142
222.77        43.22399
223.23        61.67675
223.69        85.28691
224.15        95.53495
224.61        85.63095
225.06        69.03699
225.52        57.39943
225.98        54.51758
226.44        59.09728
226.90        70.07278
227.36        85.27763
227.81        93.29623
228.27        89.22081
228.73        80.32825
229.19        72.95666
229.65        70.58636
230.10        72.71431
230.56        78.07181
231.02        85.41991
231.48        90.52726
231.93        90.77481
232.39        88.60657
232.85         85.3637
233.31        82.16342
233.77        79.50214
234.22        77.08604
234.68        75.51055
235.14        75.57976
235.60        77.50917
236.05        81.80501
236.51         88.5144
236.97        95.81796
237.43          100.82
237.88        102.2802
238.34        100.4482
238.80        98.13946
239.26        96.03651
239.71        93.49241
240.17        87.79734
240.63        75.51389
241.08        58.82265
241.54        44.39816
242.00        36.92218
242.46        36.52611
242.91        42.84146
243.37        57.72603
243.83        85.27496
244.28        111.2427
244.74        112.2512
245.20         99.6731
245.66        85.92041
246.11        74.07483
246.57        61.42531
247.03        42.54192
247.48        12.77542
247.94       -21.05556
248.40       -41.76657
248.85       -45.58303
249.31       -33.29536
249.77        -15.0737
250.22        1.240971
250.68        14.61732
251.14        23.28815
251.59        26.30992
252.05        24.39304
252.51        15.37889
252.96       -6.780787
253.42        -25.7019
253.88        6.771013
254.33        51.13247
254.79        71.10847
255.25        76.69727
255.70        76.65923
256.16        75.30767
256.62        73.96767
257.07        73.50635
257.53        74.22303
257.99        75.16872
258.44        75.83332
258.90        76.41046
259.35         76.5171
259.81        76.64518
260.27        76.59679
260.72        76.18313
261.18        75.76774
261.63        75.06143
262.09        74.47789
262.55        73.96453
263.00        73.37329
263.46        72.86488
263.91         72.1802
264.37         71.4461
264.83         70.5916
265.28        69.65337
265.74        68.74322
266.19        67.64816
266.65        66.51854
267.11        65.30273
267.56        64.24308
268.02        63.83496
268.47        64.06548
268.93         64.7481
269.38        65.42162
269.84        65.29756
270.30         64.2309
270.75         62.4598
271.21        60.47116
271.66         58.8601
272.12        57.85593
272.57        57.19018
273.03         56.7156
273.48        56.11622
273.94        55.35086
274.39        54.50051
274.85        53.63548
275.31        52.71669
275.76        51.74321
276.22        50.78598
276.67        49.84314
277.13        49.09712
277.58        48.46969
278.04        47.96507
278.49        47.45679
278.95        46.91642
279.40        46.25954
279.86        45.57488
280.31        44.80661
280.77        44.02533
281.22        43.18116
281.68        42.35883
282.13        41.51611
282.59        40.72464
283.04        39.95419
283.50           39.26
283.95        38.64209
284.41         38.1846
284.86        37.86541
285.32        37.66977
285.77        37.53689
286.22        37.44372
286.68        37.35947
287.13        37.25505
287.59        37.07561
288.04        36.69315
288.50        36.14946
288.95        35.46463
289.41        34.80976
289.86        34.32096
290.32         34.0593
290.77        33.95367
291.22        33.93308
291.68        33.87088
292.13        33.72757
292.59        33.57911
293.04        33.44324
293.50        33.40486
293.95        33.46583
294.40        33.60035
294.86         33.8124
295.31        34.12416
295.77        34.51791
296.22        34.97018
296.68        35.40816
297.13        35.69827
297.58        35.83343
298.04        35.86892
298.49         35.8759
298.95        36.01447
299.40        36.29994
299.85        36.68094
300.31        37.11453
300.76        37.52375
301.21        37.88542
301.67        38.23054
302.12        38.50921
302.58        38.67726
303.03        38.71624
303.48          38.667
303.94        38.63795
304.39         38.7173
304.84         38.9496
305.30        39.28993
305.75         39.6637
306.20        39.97953
306.66        40.20843
307.11        40.34727
307.57        40.41454
308.02        40.37665
308.47        40.25707
308.93        40.07194
309.38        39.83624
309.83        39.63131
310.29        39.48959
310.74          39.399
311.19        39.33945
311.65        39.25898
312.10        39.13981
312.55        38.99697
313.00        38.88518
313.46        38.88857
313.91        39.00491
314.36         39.1943
314.82        39.35162
315.27        39.32605
315.72        39.07901
316.18        38.67024
316.63        38.18789
317.08        37.77754
317.53        37.47907
317.99        37.25895
318.44        37.06859
318.89        36.83803
319.35        36.55263
319.80        36.24682
320.25        35.95908
320.70        35.73849
321.16         35.5906
321.61        35.50162
322.06        35.43925
322.51        35.36137
322.97        35.24351
323.42         35.1045
323.87        34.94836
324.32        34.79589
324.78        34.64703
325.23        34.50531
325.68        34.35003
326.13        34.15864
326.59        33.91943
327.04        33.65826
327.49        33.39037
327.94        33.15098
328.39        32.95221
328.85        32.77813
329.30         32.6332
329.75        32.48186
330.20        32.31718
330.66        32.14188
331.11        31.98327
331.56        31.84911
332.01         31.7436
332.46        31.65775
332.92        31.57646
333.37        31.51407
333.82        31.45724
334.27        31.41105
334.72        31.36627
335.17        31.30926
335.63        31.22738
336.08        31.13617
336.53        31.05404
336.98        31.02674
337.43        31.06126
337.88         31.1505
338.34        31.22563
338.79         31.1933
339.24        31.02534
339.69        30.74685
340.14        30.46269
340.59        30.34009
341.05         30.4034
341.50        30.60886
341.95        30.82571
342.40          30.842
342.85        30.61789
343.30        30.23956
343.75        29.83794
344.20         29.6115
344.66        29.61584
345.11        29.77598
345.56        30.03306
346.01        30.28568
346.46        30.47988
346.91        30.63343
347.36        30.72462
347.81        30.72165
348.26        30.62955
348.72        30.46797
349.17         30.2487
349.62        30.03963
350.07        29.86033
350.52        29.69012
350.97        29.55063
351.42        29.46614
351.87        29.43807
352.32        29.48106
352.77        29.50308
353.22        29.36084
353.67        29.04151
354.13        28.58932
354.58        28.16214
355.03        28.04247
355.48        28.27306
355.93        28.77584
356.38        29.30757
356.83         29.4588
357.28        29.14509
357.73        28.50854
358.18        27.83043
358.63        27.52863
359.08         27.6842
359.53        28.15034
359.98         28.7117
360.43        29.00506
360.88        28.92064
361.33        28.59092
361.78        28.14072
362.23        27.74607
362.68        27.46816
363.13        27.24269
363.58        27.07165
364.03        26.97215
364.48        26.92865
364.93        26.93828
365.38        26.94377
365.83         26.8426
366.28        26.61441
366.73        26.29327
367.18        25.91567
367.63        25.55242
368.08        25.24371
368.53        24.97945
368.98        24.78709
369.43        24.70252
369.88        24.71586
370.33        24.80809
370.78        24.91861
371.23        24.93793
371.68         24.8303
372.13        24.62471
372.58        24.35367
373.03        24.06913
373.48        23.79646
373.93        23.52865
374.38         23.2917
374.83         23.1303
375.28        23.05151
375.72        23.03868
376.17         23.0627
376.62        23.06693
377.07        23.02882
377.52        22.95704
377.97        22.84378
378.42        22.68141
378.87        22.48025
379.32        22.25133
379.77        22.02589
380.22        21.85167
380.67        21.74002
381.11        21.68044
381.56        21.65987
382.01        21.65822
382.46        21.66424
382.91        21.68339
383.36        21.69075
383.81        21.65132
384.26        21.55706
384.71        21.40584
385.15        21.23631
385.60        21.13279
386.05        21.10301
386.50        21.13261
386.95        21.15055
387.40         21.0462
387.85        20.81292
388.29        20.48272
388.74        20.18912
389.19        20.05746
389.64        20.10342
390.09        20.26651
390.54        20.45706
390.98         20.5288
391.43        20.45316
391.88        20.28951
392.33        20.08098
392.78        19.89538
393.23        19.75737
393.67        19.60993
394.12         19.4986
394.57        19.51156
395.02        19.61826
395.47        19.67502
395.91        19.65981
396.36         19.6422
396.81        19.62347
397.26        19.54909
397.71        19.43712
398.15        19.36476
398.60        19.36492
399.05        19.33157
399.50        19.28387
399.95        19.39349
400.39        19.59502
400.84        19.53911
401.29        19.24553
401.74        19.06208
402.18        19.01649
402.63        18.90362
403.08        18.74546
403.53        18.66356
403.97         18.6605
404.42        18.70741
404.87        18.75622
405.32        18.72852
405.76        18.60657
406.21        18.42527
406.66        18.23748
407.11        18.12773
407.55        18.12243
408.00         18.1974
408.45        18.31001
408.90        18.35828
409.34        18.32411
409.79         18.2755
410.24        18.23622
410.68        18.19898
411.13        18.17431
411.58        18.17313
412.03        18.17064
412.47        18.11856
412.92        18.00785
413.37        17.86257
413.81        17.72019
414.26         17.6478
414.71        17.65012
415.15        17.71394
415.60        17.78659
416.05        17.79902
416.49        17.73151
416.94        17.60376
417.39        17.45961
417.83        17.36853
418.28        17.34784
418.73        17.37409
419.17        17.41254
419.62        17.40062
420.07        17.33165
420.51        17.23152
420.96        17.14044
421.41        17.09371
421.85        17.09372
422.30        17.12475
422.74        17.18253
423.19        17.28108
423.64        17.40752
424.08        17.56725
424.53        17.68388
424.98        17.65337
425.42        17.46382
425.87        17.15754
426.31        16.83523
426.76        16.66419
427.21        16.67561
427.65        16.81557
428.10        17.02924
428.54        17.21346
428.99        17.33389
429.44        17.45236
429.88        17.51065
430.33        17.42836
430.77        17.21159
431.22        16.89997
431.66        16.61778
432.11        16.58821
432.56        16.78587
433.00        17.10875
433.45        17.34472
433.89         17.0788
434.34        16.33849
434.78        16.23682
435.23        16.85768
435.67        17.08109
436.12        16.91513
436.57        16.96548
437.01        17.22162
437.46        17.32685
437.90        17.25034
438.35        17.12105
438.79        16.97184
439.24        16.80886
439.68        16.68442
440.13        16.71132
440.57        16.83313
441.02        16.89053
441.46        16.86537
441.91        16.73142
442.35         16.5606
442.80        16.74183
443.24        17.14851
443.69        17.10182
444.13        16.65987
444.58        16.50041
445.02         16.6363
445.47        16.70109
445.91         16.6836
446.36        16.74063
446.80        16.86439
447.24        17.01027
447.69        17.14097
448.13        17.19814
448.58        17.17301
449.02        17.08453
449.47        16.97957
449.91        16.91845
450.36         16.9226
450.80        16.96851
451.25        17.02941
451.69        17.05019
452.13        17.01922
452.58          16.959
453.02        16.88281
453.47        16.82218
453.91        16.78421
454.36        16.76203
454.80        16.74959
455.24        16.73656
455.69        16.72251
456.13         16.7016
456.58        16.68779
457.02        16.67748
457.46        16.67558
457.91        16.68317
458.35        16.68461
458.79        16.63163
459.24        16.53065
459.68        16.43871
460.13         16.4157
460.57        16.21961
461.01        16.32918
461.46        16.37259
461.90        16.46406
462.34        16.48758
462.79        16.52052
463.23        16.49789
463.68        16.46981
464.12         16.4785
464.56        16.53234
465.01        16.63752
465.45        16.72583
465.89        16.72767
466.34        16.64102
466.78        16.48337
467.22        16.31943
467.67        16.29003
468.11        16.35465
468.55        16.53494
468.99        16.74412
469.44        16.87975
469.88        16.91684
470.32        16.88094
470.77        16.81176
471.21        16.77216
471.65        16.78226
472.10        16.82397
472.54        16.87159
472.98        16.89708
473.42        16.89543
473.87         16.8888
474.31        16.88299
474.75        16.90202
475.20        16.95372
475.64        17.01408
476.08        17.07226
476.52        17.15664
476.97        17.26942
477.41        17.32172
477.85        17.26895
478.29        17.52886
478.74        17.34699
479.18        17.31002
479.62        17.22971
480.06        17.26761
480.50        17.44115
480.95         17.3874
481.39        17.66274
481.83        17.71923
482.27        17.72825
482.72        17.70479
483.16        17.67485
483.60        17.70224
484.04         17.7872
484.48        17.85247
484.93        17.97058
485.37        18.20371
485.81        18.41014
486.25        18.67282
486.69        17.96609
487.14        17.54869
487.58        18.19076
488.02         18.6116
488.46        18.43185
488.90        18.64753
489.34        18.69731
489.79        18.54255
490.23        18.85287
490.67        19.04431
491.11        19.29741
491.55        19.36892
491.99        19.29705
492.43        19.34177
492.88        19.50881
493.32        19.62356
493.76        19.67875
494.20        19.77327
494.64        19.91613
495.08        20.05904
495.52        20.18499
495.96        20.34008
496.41        20.49984
496.85        20.49751
497.29        20.39767
497.73        20.55022
498.17        20.91541
498.61         21.0588
499.05        20.98287
499.49        21.04037
499.93        21.23778
500.37        21.37126
500.82        21.43494
501.26         21.5124
501.70        21.60544
502.14        21.69188
502.58        21.76152
503.02        21.79933
503.46        21.80641
503.90        21.79483
504.34        21.78984
504.78        21.82759
505.22        21.91687
505.66        22.04816
506.10        22.19452
506.54           22.31
506.98        22.38025
507.42        22.41578
507.86         22.4369
508.30        22.47646
508.74        22.54329
509.18        22.62755
509.62        22.71166
510.06        22.76787
510.50        22.78964
510.94        22.78653
511.38        22.77861
511.82        22.79699
512.26        22.84656
512.70        22.91375
513.14        22.97678
513.58        23.00233
514.02         22.9828
514.46        22.93229
514.90        22.86503
515.34        22.80298
515.78        22.75844
516.22        22.72998
516.66        22.72243
517.10        22.74189
517.54        22.78714
517.98        22.85421
518.42        22.93585
518.86        23.01854
519.30        23.09291
519.74        23.15576
520.18        23.19684
520.62        23.20465
521.06        23.17767
521.50        23.11813
521.93        23.04226
522.37        22.97177
522.81        22.91935
523.25        22.88763
523.69        22.86486
524.13        22.82913
524.57        22.77853
525.01        22.71932
525.45        22.67739
525.89        22.69338
526.32        22.76803
526.76        22.87896
527.20        22.98232
527.64        23.00914
528.08        22.94467
528.52        22.81693
528.96        22.65838
529.40        22.51938
529.83        22.41753
530.27        22.34601
530.71        22.30892
531.15        22.31757
531.59        22.36585
532.03         22.4463
532.46        22.52642
532.90        22.55696
533.34        22.52742
533.78        22.43552
534.22        22.30564
534.66         22.2159
535.09        22.15912
535.53        22.04859
535.97        21.90838
536.41        21.85431
536.85        21.89455
537.28        21.97515
537.72         22.0666
538.16        22.14213
538.60        22.18742
539.04        22.20545
539.47        22.21504
539.91        22.26105
540.35        22.34555
540.79        22.46473
541.22         22.5917
541.66        22.65047
542.10         22.6919
542.54          22.687
542.97        22.68563
543.41        22.75065
543.85        22.88942
544.29        23.08251
544.72        23.29177
545.16        23.47017
545.60        23.59966
546.04        23.69082
546.47        23.76627
546.91        23.86749
547.35        24.00407
547.79        24.15643
548.22        24.28424
548.66        24.38014
549.10        24.44224
549.53         24.3701
549.97        24.42321
550.41         24.5132
550.84        24.71516
551.28        25.00384
551.72        25.31861
552.15        25.53577
552.59           25.64
553.03        25.69696
553.46         25.7306
553.90        25.79407
554.34        25.90353
554.77        26.00153
555.21        26.05182
555.65        26.28195
556.08        26.19114
556.52        26.20897
556.96        26.20925
557.39        26.25056
557.83        26.34703
558.27        26.44288
558.70        26.52928
559.14        26.72228
559.57        26.77423
560.01        26.92433
560.45        27.04797
560.88        27.04114
561.32        26.96025
561.75        26.83701
562.19        26.76239
562.63        26.98944
563.06         27.4069
563.50        27.43387
563.93        27.12095
564.37        27.08058
564.80        27.31807
565.24        27.49393
565.68        27.57958
566.11        27.69337
566.55         27.8376
566.98        27.96676
567.42        28.09528
567.85        28.21775
568.29        28.33382
568.72        28.46041
569.16        28.63332
569.60        28.70131
570.03        28.62342
570.47        28.93135
570.90        29.05885
571.34        28.77636
571.77        29.09694
572.21        29.13059
572.64        29.24625
573.08        29.22686
573.51        29.71068
573.95        29.71338
574.38        29.73779
574.82        29.88881
