SpectraSmart Spectrum 2.9.0.0
--------- Device Information -----------
Spectrum Name :  反射率_0
Saving Time :  2024/05/01 16:47:06
Spectro-Module Model Name : SE2030-DUVN
Spectro-Module Serial Number : OS361AC55029948
Wavelength Start : 200
Wavelength End : 1025
Wavelength Unit : Wavelength(nm)
Spectrum Unit : Reflectance(%)
-----------Spectrum Setting ------------
Integration Time : 20ms
Average : 10
Boxcar : 0
Background removal :  enabled
linearity correction :  enabled
SC :  disabled
Intensity correction :  disabled
DWT denoise :  enabled
savitzky-golay :  disabled
FFT :  disabled
Running average :  disabled
Kalman :  disabled
High pass :  disabled
---------------BEGIN--------------------
Wavelength(nm)             Reflectance(%)
200.29               0
200.75        321.5158
201.21        1276.755
201.67       -511.4113
202.13       -188.2493
202.58       -91.92166
203.04       -38.44072
203.50         -8.3388
203.96      -0.2959487
204.42       -14.72208
204.88       -86.49171
205.34       -2039.849
205.80        332.2122
206.26        221.2854
206.72        189.6308
207.18        222.7294
207.64        -2.09302
208.10        32.96651
208.55        22.76856
209.01        9.640778
209.47        3.795052
209.93        3.884923
210.39          4.6996
210.85        3.080781
211.31       -8.488264
211.77       -63.68057
212.23        386.7834
212.69        121.8991
213.14        125.5732
213.60        223.9863
214.06       -946.9102
214.52       -141.8587
214.98       -92.81085
215.44       -89.77904
215.90       -126.6042
216.36       -792.6429
216.81        220.7031
217.27        233.8403
217.73       -452.0894
218.19       -98.80975
218.65        -82.6502
219.11       -111.5765
219.57       -229.7261
220.02       -704.2313
220.48       -332.5897
220.94       -81.30239
221.40       -18.99382
221.86        2.491179
222.32        10.71687
222.77        14.13484
223.23         15.2337
223.69        15.11956
224.15        15.57418
224.61        16.94336
225.06        18.08524
225.52        18.82439
225.98        19.07028
226.44        18.97999
226.90        18.63853
227.36        18.40933
227.81        19.06098
228.27        20.40997
228.73        21.77524
229.19        22.63113
229.65        22.72231
230.10        22.18361
230.56         21.3391
231.02        20.46005
231.48        20.43759
231.93        21.51709
232.39         23.0847
232.85        24.87096
233.31        26.83113
233.77         28.7833
234.22        30.65678
234.68        32.07712
235.14        32.72085
235.60         32.5587
236.05        31.59929
236.51        29.70142
236.97        27.20687
237.43        24.77152
237.88        22.75096
238.34        21.36604
238.80        20.47664
239.26        19.77766
239.71        19.68581
240.17        19.68342
240.63         17.2623
241.08        11.94206
241.54        6.005504
242.00        2.503971
242.46        3.672161
242.91        10.58168
243.37        24.99561
243.83        51.51652
244.28        78.84351
244.74        83.75349
245.20        74.64297
245.66        64.06683
246.11         56.4324
246.57        50.22588
247.03        42.31038
247.48        27.90589
247.94        3.136211
248.40       -25.96097
248.85       -51.21855
249.31       -59.05442
249.77       -44.57254
250.22       -19.95023
250.68        4.657481
251.14        22.80048
251.59        31.32157
252.05        31.60662
252.51        22.73608
252.96       -5.399966
253.42       -50.20454
253.88       -51.37535
254.33       -14.12941
254.79        12.27988
255.25        25.99808
255.70        33.64915
256.16        39.03969
256.62         42.5671
257.07        44.05011
257.53        44.43332
257.99        44.10149
258.44        43.55573
258.90        43.51206
259.35        43.69313
259.81        44.12946
260.27        44.36192
260.72        43.84798
261.18        42.88191
261.63        41.58712
262.09        40.48388
262.55        39.83847
263.00        39.53413
263.46        39.44381
263.91        39.28735
264.37        38.94296
264.83        38.35476
265.28        37.64706
265.74        36.87953
266.19        35.91698
266.65        34.88457
267.11        33.75563
267.56        32.79803
268.02        32.51858
268.47        32.92376
268.93        33.80194
269.38        34.71345
269.84        34.88232
270.30        34.15345
270.75        32.76784
271.21        31.11911
271.66         29.6992
272.12        28.72725
272.57        28.01416
273.03        27.53113
273.48         27.1855
273.94        26.93705
274.39        26.80557
274.85        26.71337
275.31        26.48693
275.76        26.09123
276.22         25.5927
276.67        25.04904
277.13        24.63656
277.58         24.3373
278.04         24.1363
278.49        23.93821
278.95        23.69948
279.40        23.36693
279.86        22.99973
280.31        22.60607
280.77        22.26736
281.22        21.95539
281.68        21.68657
282.13        21.38255
282.59        21.00101
283.04        20.52337
283.50        20.01972
283.95        19.54801
284.41        19.23978
284.86        19.10987
285.32        19.11562
285.77         19.2105
286.22        19.35087
286.68        19.51396
287.13        19.69448
287.59        19.84371
288.04        19.84186
288.50        19.70406
288.95        19.43845
289.41        19.18582
289.86        19.09239
290.32        19.19904
290.77        19.44923
291.22        19.74226
291.68        19.91588
292.13        19.93819
292.59        19.89384
293.04        19.85327
293.50        19.97179
293.95        20.26702
294.40        20.68637
294.86        21.18062
295.31        21.68949
295.77        22.17127
296.22        22.63728
296.68        23.04941
297.13        23.33972
297.58        23.51989
298.04        23.63117
298.49        23.73873
298.95        23.98265
299.40        24.37579
299.85        24.87062
300.31        25.42543
300.76        25.97793
301.21        26.49948
301.67        27.01363
302.12        27.45248
302.58        27.73603
303.03        27.84243
303.48        27.81558
303.94        27.78636
304.39        27.89704
304.84        28.19587
305.30        28.63199
305.75        29.09919
306.20        29.44599
306.66        29.63214
307.11        29.67889
307.57         29.6619
308.02        29.64855
308.47        29.67085
308.93        29.71365
309.38        29.70724
309.83        29.59441
310.29        29.37832
310.74        29.08795
311.19        28.80713
311.65         28.6468
312.10         28.6268
312.55        28.71625
313.00        28.84745
313.46        28.91292
313.91        28.87247
314.36        28.74428
314.82        28.57215
315.27        28.44371
315.72        28.37055
316.18        28.32632
316.63        28.23555
317.08        27.99047
317.53        27.57831
317.99        27.04807
318.44        26.49283
318.89        26.08104
319.35        25.86189
319.80        25.78726
320.25        25.77951
320.70        25.70428
321.16        25.51669
321.61        25.26533
322.06        24.98765
322.51        24.74962
322.97        24.56742
323.42         24.4179
323.87        24.28472
324.32        24.15672
324.78        24.01955
325.23        23.89086
325.68        23.74691
326.13        23.55149
326.59        23.29333
327.04         22.9912
327.49        22.67282
327.94        22.39769
328.39        22.18374
328.85        22.01307
329.30        21.86859
329.75        21.69458
330.20        21.47709
330.66        21.22914
331.11        20.98494
331.56        20.77687
332.01        20.61778
332.46        20.49708
332.92        20.39207
333.37        20.29232
333.82        20.18299
334.27        20.07328
334.72        19.97776
335.17        19.92142
335.63        19.90156
336.08        19.91796
336.53        19.94943
336.98        19.97453
337.43        19.98329
337.88        19.98048
338.34        19.95278
338.79         19.8921
339.24        19.79383
339.69        19.65781
340.14        19.51438
340.59        19.41356
341.05        19.35539
341.50        19.32973
341.95        19.29458
342.40        19.18038
342.85        18.98041
343.30         18.7387
343.75        18.49162
344.20        18.28965
344.66        18.15922
345.11        18.07654
345.56          18.077
346.01        18.21217
346.46        18.46597
346.91        18.79891
347.36        19.10917
347.81        19.24785
348.26        19.18522
348.72        18.97494
349.17        18.66891
349.62        18.39329
350.07        18.19054
350.52        18.02709
350.97        17.90197
351.42        17.80685
351.87        17.73856
352.32         17.7239
352.77        17.71708
353.22        17.64031
353.67        17.48462
354.13        17.26542
354.58        17.06779
355.03        17.05494
355.48        17.24793
355.93        17.60235
356.38        17.95941
356.83        18.05312
357.28        17.83273
357.73        17.39133
358.18        16.92813
358.63        16.73954
359.08        16.88158
359.53        17.25262
359.98        17.69232
360.43        17.92733
360.88         17.8766
361.33        17.63832
361.78        17.31154
362.23        17.03851
362.68        16.86665
363.13        16.74476
363.58         16.6674
364.03        16.63474
364.48        16.63074
364.93        16.65596
365.38        16.67124
365.83        16.60712
366.28        16.45061
366.73        16.22498
367.18        15.95734
367.63        15.69878
368.08        15.48118
368.53        15.30317
368.98        15.18348
369.43         15.1466
369.88        15.18505
370.33         15.2794
370.78        15.39946
371.23        15.48816
371.68        15.51627
372.13        15.49422
372.58         15.3999
373.03        15.20452
373.48        14.91818
373.93        14.55692
374.38        14.20244
374.83        13.99163
375.28        13.95886
375.72        14.06739
376.17        14.23261
376.62         14.3187
377.07        14.28611
377.52        14.16677
377.97        14.00869
378.42         13.8899
378.87        13.83093
379.32        13.80644
379.77         13.7761
380.22        13.68154
380.67        13.51543
381.11         13.3069
381.56        13.10912
382.01        13.00897
382.46        13.02667
382.91        13.13259
383.36        13.26522
383.81        13.33278
384.26         13.3071
384.71        13.20554
385.15        13.06886
385.60        12.97849
386.05        12.94811
386.50         12.9612
386.95        12.96328
387.40        12.87223
387.85        12.68656
388.29        12.43542
388.74        12.22835
389.19         12.1709
389.64        12.27449
390.09         12.4867
390.54        12.72501
390.98        12.85651
391.43        12.84617
391.88        12.74517
392.33        12.59251
392.78        12.44972
393.23        12.33902
393.67        12.21859
394.12        12.12206
394.57        12.10932
395.02        12.16316
395.47        12.19861
395.91        12.19444
396.36        12.17451
396.81        12.13914
397.26        12.05739
397.71        11.96004
398.15        11.92455
398.60        11.97208
399.05        12.02244
399.50        12.05749
399.95        12.14371
400.39        12.23325
400.84        12.12079
401.29        11.84696
401.74        11.67573
402.18        11.63831
402.63        11.59571
403.08        11.54246
403.53        11.52394
403.97        11.53313
404.42        11.56209
404.87        11.58394
405.32        11.55207
405.76        11.45877
406.21         11.3253
406.66        11.19247
407.11        11.12899
407.55        11.15207
408.00        11.23854
408.45        11.35118
408.90        11.40651
409.34        11.38679
409.79        11.34218
410.24        11.28517
410.68        11.20555
411.13          11.115
411.58        11.02388
412.03        10.94506
412.47        10.89876
412.92        10.88829
413.37        10.90584
413.81        10.93733
414.26        10.96968
414.71        10.99165
415.15        11.01475
415.60        11.01213
416.05        10.95613
416.49        10.84662
416.94        10.69181
417.39        10.54631
417.83        10.49788
418.28         10.5604
418.73        10.70446
419.17        10.86096
419.62        10.90859
420.07        10.82765
420.51        10.66117
420.96        10.47671
421.41        10.35975
421.85        10.33073
422.30        10.35921
422.74        10.42973
423.19        10.53076
423.64        10.64534
424.08        10.78388
424.53         10.8903
424.98        10.88457
425.42        10.75665
425.87        10.54016
426.31        10.30351
426.76        10.16832
427.21        10.15882
427.65         10.2355
428.10        10.37613
428.54        10.53661
428.99        10.68617
429.44         10.8512
429.88        10.96236
430.33        10.91834
430.77        10.72066
431.22        10.41688
431.66        10.11197
432.11        9.994692
432.56        10.06615
433.00        10.25007
433.45        10.42014
433.89        10.32126
434.34        9.950982
434.78         9.98424
435.23        10.45043
435.67        10.60831
436.12        10.45294
436.57        10.37551
437.01        10.40676
437.46        10.39946
437.90         10.3576
438.35        10.33958
438.79        10.33488
439.24        10.30014
439.68          10.253
440.13        10.27577
440.57        10.34696
441.02        10.38655
441.46        10.38816
441.91        10.32514
442.35        10.23147
442.80        10.33694
443.24        10.56094
443.69        10.49271
444.13        10.18084
444.58        10.05683
445.02        10.13172
445.47        10.17842
445.91        10.18335
446.36        10.23066
446.80        10.31199
447.24        10.40088
447.69        10.47697
448.13        10.51144
448.58        10.49761
449.02        10.44327
449.47        10.37021
449.91        10.30467
450.36        10.26102
450.80         10.2341
451.25        10.21554
451.69        10.18328
452.13        10.13477
452.58        10.07907
453.02        10.03148
453.47        10.02315
453.91        10.05547
454.36        10.11856
454.80        10.18101
455.24        10.18992
455.69        10.13815
456.13        10.03697
456.58        9.931677
457.02        9.876698
457.46         9.88622
457.91        9.940378
458.35        10.00049
458.79         9.98959
459.24        9.901798
459.68        9.789807
460.13         9.70679
460.57        9.529489
461.01        9.550593
461.46        9.542448
461.90        9.578658
462.34        9.598718
462.79        9.646376
463.23        9.680265
463.68        9.716433
464.12        9.754171
464.56        9.792598
465.01        9.841619
465.45        9.869566
465.89        9.844787
466.34        9.771542
466.78        9.655841
467.22        9.542915
467.67        9.527938
468.11        9.587178
468.55        9.731663
468.99        9.896852
469.44        10.00087
469.88        10.02503
470.32        9.988065
470.77        9.924451
471.21        9.886859
471.65        9.893304
472.10        9.927729
472.54        9.968194
472.98          9.9887
473.42        9.984271
473.87        9.973202
474.31         9.96226
474.75        9.970787
475.20          10.005
475.64        10.04805
476.08        10.09387
476.52        10.16013
476.97        10.24708
477.41        10.30325
477.85         10.2969
478.29        10.46941
478.74        10.36995
479.18        10.34997
479.62        10.30386
480.06        10.34128
480.50        10.47265
480.95        10.47026
481.39        10.66522
481.83        10.71795
482.27        10.73217
482.72        10.72828
483.16        10.71689
483.60        10.73123
484.04        10.75407
484.48        10.77716
484.93        10.89502
485.37        11.07192
485.81        11.12186
486.25        11.82416
486.69        10.90579
487.14        10.69839
487.58        11.24696
488.02        11.51103
488.46        11.37228
488.90        11.62171
489.34        11.25779
489.79        11.27932
490.23        11.80716
490.67         12.1126
491.11        12.25217
491.55        12.21344
491.99        12.07606
492.43        12.06603
492.88        12.20951
493.32        12.33535
493.76        12.42202
494.20        12.54068
494.64         12.6906
495.08        12.83689
495.52        12.96659
495.96        13.11038
496.41        13.25298
496.85        13.27744
497.29        13.23241
497.73        13.37471
498.17        13.67501
498.61        13.81004
499.05        13.77999
499.49        13.84781
499.93        14.01893
500.37        14.14128
500.82        14.20847
501.26        14.27883
501.70        14.35542
502.14        14.42291
502.58        14.48291
503.02        14.53869
503.46         14.5931
503.90        14.65012
504.34        14.71539
504.78        14.79465
505.22        14.88683
505.66        14.98703
506.10        15.08529
506.54        15.16519
506.98        15.22104
507.42        15.25788
507.86        15.27756
508.30        15.28313
508.74        15.28084
509.18        15.27459
509.62        15.27714
510.06        15.30865
510.50        15.37324
510.94        15.46354
511.38        15.56904
511.82        15.67172
512.26        15.76124
512.70          15.837
513.14        15.89178
513.58         15.9171
514.02         15.9132
514.46        15.88346
514.90        15.83795
515.34        15.79408
515.78        15.76005
516.22         15.7359
516.66         15.7227
517.10         15.7191
517.54         15.7234
517.98        15.73555
518.42        15.75251
518.86        15.76818
519.30         15.7795
519.74        15.78604
520.18        15.78425
520.62        15.77074
521.06        15.74504
521.50        15.70657
521.93        15.66484
522.37        15.63105
522.81         15.6109
523.25        15.60477
523.69        15.59945
524.13        15.57285
524.57        15.52296
525.01        15.45683
525.45         15.3986
525.89        15.38589
526.32        15.42352
526.76        15.49518
527.20        15.56874
527.64        15.59262
528.08        15.55389
528.52         15.4692
528.96        15.36377
529.40        15.27746
529.83        15.21986
530.27        15.18268
530.71        15.15383
531.15        15.11817
531.59        15.07104
532.03        15.02007
532.46        14.96626
532.90        14.91153
533.34        14.86068
533.78         14.8022
534.22        14.74293
534.66        14.71947
535.09        14.71806
535.53        14.68247
535.97        14.61993
536.41        14.59487
536.85        14.61105
537.28        14.63619
537.72        14.65693
538.16        14.66926
538.60        14.66928
539.04        14.65595
539.47        14.64779
539.91         14.6823
540.35        14.76077
540.79        14.88132
541.22        15.00957
541.66        15.06676
542.10        15.08286
542.54        15.04571
542.97         15.0145
543.41        15.07391
543.85        15.23453
544.29        15.46764
544.72        15.71716
545.16        15.90333
545.60        16.00472
546.04        16.04583
546.47        16.06524
546.91         16.1295
547.35        16.25637
547.79        16.41909
548.22         16.5809
548.66        16.72398
549.10        16.84142
549.53        16.86683
549.97        16.97507
550.41        17.09478
550.84        17.27552
551.28        17.50124
551.72        17.73574
552.15        17.90397
552.59        18.00041
553.03        18.07152
553.46        18.13312
553.90        18.22002
554.34        18.34252
554.77         18.4621
555.21        18.56226
555.65        18.79488
556.08        18.79484
556.52        18.90935
556.96        19.04372
557.39        19.00976
557.83        19.17845
558.27        19.22634
558.70        19.26793
559.14        19.40075
559.57        19.45385
560.01        19.59149
560.45        19.71408
560.88        19.74075
561.32        19.70867
561.75        19.64432
562.19        19.61205
562.63        19.79427
563.06        20.11013
563.50        20.13421
563.93        19.90809
564.37        19.89071
564.80         20.0872
565.24        20.24464
565.68        20.33849
566.11        20.45031
566.55        20.58046
566.98        20.69996
567.42        20.81583
567.85        20.92391
568.29        21.03178
568.72        21.13288
569.16        21.25448
569.60        21.37794
570.03        21.49002
570.47        21.68995
570.90        21.88897
571.34        21.92568
571.77        22.10026
572.21        22.16375
572.64        22.24664
573.08        22.30532
573.51        22.81042
573.95        22.81679
574.38        22.70652
574.82        22.92134
