SpectraSmart Spectrum 2.9.0.0
--------- Device Information -----------
Spectrum Name :  反射率_0
Saving Time :  2024/05/01 17:24:14
Spectro-Module Model Name : SE2030-DUVN
Spectro-Module Serial Number : OS361AC55029948
Wavelength Start : 200
Wavelength End : 1025
Wavelength Unit : Wavelength(nm)
Spectrum Unit : Reflectance(%)
-----------Spectrum Setting ------------
Integration Time : 20ms
Average : 10
Boxcar : 0
Background removal :  enabled
linearity correction :  enabled
SC :  disabled
Intensity correction :  disabled
DWT denoise :  enabled
savitzky-golay :  disabled
FFT :  disabled
Running average :  disabled
Kalman :  disabled
High pass :  disabled
---------------BEGIN--------------------
Wavelength(nm)             Reflectance(%)
200.29               0
200.75        104.3556
201.21        542.8966
201.67       -245.2982
202.13       -82.92565
202.58       -23.34447
203.04        14.69679
203.50        39.20747
203.96        50.86618
204.42        52.89915
204.88        42.06422
205.34       -284.7697
205.80        96.79007
206.26        57.09803
206.72        3.549277
207.18       -242.5161
207.64        451.5023
208.10        203.9741
208.55        141.9685
209.01        110.9032
209.47        94.46892
209.93        86.17063
210.39        80.20892
210.85        77.73809
211.31        83.79726
211.77        119.3618
212.23       -200.0725
212.69       -4.921495
213.14        20.21918
213.60        58.00916
214.06       -285.6888
214.52       -44.31787
214.98       -28.70299
215.44       -26.52842
215.90        -33.2117
216.36       -146.0536
216.81         3.44624
217.27       -56.71212
217.73        243.5991
218.19        73.84483
218.65          64.278
219.11        78.07516
219.57        134.8437
220.02           378.2
220.48        223.9061
220.94        95.08688
221.40        61.89428
221.86        51.75432
222.32        51.33288
222.77        56.80011
223.23        67.92293
223.69        83.20255
224.15        90.26178
224.61        84.33308
225.06        73.93645
225.52        66.80647
225.98         65.2964
226.44        68.70374
226.90        76.37294
227.36        87.09497
227.81        93.52534
228.27        91.96703
228.73        86.86706
229.19        82.45597
229.65        81.21629
230.10        82.88486
230.56         86.6526
231.02        91.46442
231.48        94.11139
231.93        92.97968
232.39        90.28062
232.85        87.18825
233.31        84.65361
233.77        82.89691
234.22        81.48806
234.68        80.84776
235.14        81.53414
235.60        83.74316
236.05        88.14212
236.51        94.40736
236.97        99.99952
237.43        101.8963
237.88        99.30509
238.34         94.2191
238.80         91.2372
239.26        91.62039
239.71        95.92286
240.17        102.1711
240.63         101.521
241.08        88.09601
241.54         67.9997
242.00        52.09152
242.46        46.62607
242.91        51.86867
243.37        69.09943
243.83        101.3574
244.28         126.514
244.74         119.242
245.20        98.53769
245.66        80.96365
246.11         70.5172
246.57        64.18343
247.03         58.0582
247.48        47.83368
247.94        28.36283
248.40        2.770927
248.85       -20.92817
249.31       -30.12524
249.77       -19.98043
250.22      -0.2694925
250.68        20.29767
251.14        36.15139
251.59        45.01521
252.05         48.8206
252.51        49.00724
252.96        45.60748
253.42        50.68119
253.88        74.17019
254.33        87.29818
254.79         88.4556
255.25        85.42529
255.70        81.12284
256.16        77.68711
256.62         75.1973
257.07        73.78207
257.53        73.75311
257.99        74.24467
258.44        74.83804
258.90        75.85663
259.35        76.80544
259.81        77.94959
260.27        78.92168
260.72        79.28814
261.18        79.31927
261.63         78.7951
262.09        78.13876
262.55        77.27126
263.00         76.1367
263.46        75.01016
263.91         73.7631
264.37         72.7019
264.83        71.76505
265.28        70.90089
265.74        70.18542
266.19        69.35294
266.65         68.5136
267.11        67.61505
267.56        66.80247
268.02         66.4282
268.47        66.45371
268.93        66.72202
269.38        66.90543
269.84        66.44111
270.30        65.25077
270.75         63.5394
271.21        61.66412
271.66        60.00829
272.12        58.77541
272.57        57.77629
273.03        57.04116
273.48        56.51716
273.94        56.18033
274.39        55.97128
274.85        55.74773
275.31        55.17936
275.76        54.21276
276.22        53.03426
276.67        51.76747
277.13        50.77443
277.58        50.01738
278.04        49.44088
278.49        48.88789
278.95        48.28974
279.40        47.55259
279.86        46.80631
280.31        45.98022
280.77        45.11795
281.22        44.17149
281.68        43.22677
282.13        42.29424
282.59        41.52881
283.04        40.89649
283.50        40.41698
283.95        39.99975
284.41        39.58995
284.86        39.14753
285.32        38.72201
285.77        38.34189
286.22         38.1104
286.68        38.02625
287.13        38.01843
287.59        37.99804
288.04        37.77962
288.50        37.37341
288.95        36.80708
289.41        36.24415
289.86        35.80569
290.32         35.5585
290.77        35.43794
291.22        35.37828
291.68         35.2666
292.13        35.06928
292.59        34.85418
293.04        34.67089
293.50         34.6523
293.95        34.80108
294.40        35.08155
294.86        35.41897
295.31        35.70892
295.77        35.91978
296.22        36.07454
296.68        36.21786
297.13        36.39268
297.58        36.62805
298.04        36.92468
298.49        37.24844
298.95        37.59071
299.40        37.92268
299.85         38.2451
300.31        38.59536
300.76        39.01611
301.21        39.50824
301.67        40.05277
302.12        40.53536
302.58        40.81597
303.03        40.85219
303.48        40.72706
303.94        40.59351
304.39        40.59544
304.84        40.79484
305.30        41.12531
305.75         41.5048
306.20        41.83348
306.66        42.07713
307.11        42.24062
307.57        42.33009
308.02        42.28547
308.47        42.13338
308.93        41.90189
309.38        41.63251
309.83        41.45242
310.29        41.39831
310.74        41.43111
311.19        41.51072
311.65        41.55397
312.10        41.52755
312.55        41.45816
313.00        41.37612
313.46        41.32896
313.91        41.31702
314.36        41.31155
314.82        41.27556
315.27        41.17101
315.72        40.98092
316.18        40.73265
316.63        40.43031
317.08         40.0902
317.53        39.72433
317.99        39.33811
318.44        38.95139
318.89        38.60872
319.35        38.32774
319.80         38.1048
320.25        37.92618
320.70         37.7599
321.16        37.58711
321.61        37.42134
322.06        37.26145
322.51        37.11437
322.97        36.97024
323.42        36.83022
323.87        36.67945
324.32        36.50977
324.78        36.31588
325.23        36.12124
325.68        35.91764
326.13        35.69886
326.59        35.46004
327.04        35.21781
327.49        34.99615
327.94        34.84777
328.39        34.77784
328.85         34.7555
329.30        34.74509
329.75        34.64158
330.20        34.41912
330.66        34.10006
331.11        33.74601
331.56        33.42252
332.01        33.16347
332.46        32.95572
332.92        32.79284
333.37        32.69896
333.82        32.65776
334.27         32.6709
334.72        32.71381
335.17        32.74132
335.63        32.72123
336.08        32.66708
336.53        32.58075
336.98        32.48939
337.43        32.40381
337.88        32.32923
338.34        32.23256
338.79         32.0815
339.24        31.87107
339.69        31.61702
340.14        31.41019
340.59         31.3904
341.05        31.56344
341.50        31.88104
341.95        32.20185
342.40        32.29785
342.85        32.12282
343.30        31.76708
343.75         31.3488
344.20        31.05189
344.66        30.93826
345.11        30.94032
345.56        31.05512
346.01         31.2701
346.46        31.54636
346.91        31.87576
347.36        32.15736
347.81        32.23617
348.26         32.0923
348.72        31.78223
349.17        31.39272
349.62        31.11232
350.07        30.99303
350.52        30.97996
350.97        31.02849
351.42        31.05706
351.87        31.03641
352.32        31.00764
352.77        30.94206
353.22        30.79275
353.67        30.56173
354.13        30.25852
354.58        29.96034
355.03        29.83041
355.48        29.89338
355.93        30.11674
356.38        30.35122
356.83        30.34288
357.28        30.04833
357.73        29.55842
358.18        29.07361
358.63        28.89116
359.08        29.06012
359.53        29.47099
359.98        29.94595
360.43        30.18526
360.88         30.0993
361.33        29.79253
361.78        29.37365
362.23        28.99903
362.68         28.7238
363.13        28.49818
363.58        28.32211
364.03        28.20484
364.48        28.13383
364.93        28.10706
365.38        28.08688
365.83        28.00359
366.28         27.8383
366.73        27.60991
367.18        27.32485
367.63        27.00419
368.08        26.67513
368.53         26.3457
368.98        26.06127
369.43        25.88363
369.88        25.81484
370.33        25.83058
370.78         25.8812
371.23        25.87736
371.68        25.78514
372.13        25.62625
372.58        25.41463
373.03        25.17099
373.48        24.91243
373.93         24.6423
374.38         24.3853
374.83        24.18756
375.28        24.06165
375.72        23.98768
376.17        23.96481
376.62        23.97925
377.07        24.01138
377.52        24.05733
377.97        24.05976
378.42        23.93249
378.87        23.67252
379.32         23.3166
379.77        22.95287
380.22        22.71595
380.67        22.63715
381.11        22.68099
381.56         22.7846
382.01        22.84667
382.46        22.83291
382.91        22.77071
383.36        22.68168
383.81        22.60172
384.26        22.53673
384.71        22.46117
385.15         22.3616
385.60        22.24346
386.05        22.10262
386.50        21.95767
386.95        21.80036
387.40        21.61364
387.85        21.40922
388.29        21.18461
388.74        21.02041
389.19        20.96525
389.64        21.01866
390.09        21.14627
390.54        21.28928
390.98        21.35043
391.43        21.31127
391.88         21.2051
392.33        21.05769
392.78        20.91567
393.23        20.79852
393.67        20.66152
394.12        20.54523
394.57        20.52979
395.02        20.58497
395.47        20.55981
395.91        20.46789
396.36        20.44097
396.81        20.48721
397.26        20.53166
397.71        20.53417
398.15        20.48537
398.60        20.40901
399.05        20.22953
399.50        20.02945
399.95        20.07176
400.39        20.30495
400.84        20.34121
401.29         20.1578
401.74        20.04343
402.18        20.00346
402.63        19.84571
403.08        19.61986
403.53        19.49387
403.97        19.48252
404.42        19.53937
404.87        19.60556
405.32        19.58878
405.76        19.46539
406.21        19.27729
406.66        19.07739
407.11        18.94773
407.55        18.91572
408.00        18.95717
408.45          19.034
408.90        19.05296
409.34        19.00033
409.79        18.94527
410.24        18.90864
410.68        18.87606
411.13        18.85646
411.58         18.8633
412.03        18.87254
412.47        18.83623
412.92        18.74439
413.37        18.61921
413.81        18.49625
414.26        18.44244
414.71        18.46093
415.15        18.53617
415.60        18.61544
416.05         18.6302
416.49        18.56096
416.94         18.4301
417.39        18.27554
417.83        18.15656
418.28        18.09214
418.73         18.0637
419.17        18.05605
419.62        18.03781
420.07        18.00464
420.51        17.96738
420.96        17.94253
421.41        17.92749
421.85        17.91712
422.30        17.91397
422.74        17.92238
423.19        17.96982
423.64        18.05116
424.08        18.16521
424.53        18.25638
424.98        18.25872
425.42        18.16162
425.87        17.99129
426.31        17.80159
426.76        17.68694
427.21        17.66587
427.65        17.70869
428.10        17.79599
428.54        17.90239
428.99        18.01731
429.44        18.13574
429.88        18.19954
430.33        18.21751
430.77        18.14268
431.22        17.82574
431.66        17.40632
432.11        17.30244
432.56        17.50054
433.00        17.76668
433.45        17.90978
433.89        17.63561
434.34        16.96924
434.78        16.99434
435.23        17.75845
435.67        18.02692
436.12        17.78838
436.57         17.6992
437.01        17.79557
437.46         17.7995
437.90        17.70969
438.35        17.62935
438.79        17.56473
439.24        17.47986
439.68         17.4115
440.13        17.48996
440.57        17.65276
441.02        17.72355
441.46        17.68423
441.91        17.51029
442.35        17.28846
442.80        17.44037
443.24        17.83744
443.69        17.77258
444.13        17.30793
444.58        17.14298
445.02         17.2887
445.47        17.36901
445.91        17.35964
446.36        17.40166
446.80        17.48616
447.24        17.57501
447.69         17.6522
448.13        17.69388
448.58        17.69643
449.02        17.66354
449.47        17.62345
449.91        17.60643
450.36         17.6248
450.80        17.66621
451.25        17.70371
451.69        17.68219
452.13        17.59517
452.58        17.46436
453.02        17.32609
453.47        17.24806
453.91        17.24333
454.36        17.29811
454.80        17.37059
455.24        17.39219
455.69         17.3509
456.13        17.25598
456.58        17.16468
457.02        17.13979
457.46        17.19635
457.91        17.31108
458.35        17.42051
458.79        17.40012
459.24         17.2436
459.68        17.04229
460.13        16.89957
460.57        16.62796
461.01        16.73405
461.46        16.81452
461.90        16.96873
462.34        17.04912
462.79        17.12285
463.23        17.13219
463.68        17.12179
464.12        17.12295
464.56        17.14596
465.01        17.20079
465.45        17.23608
465.89        17.20853
466.34        17.11984
466.78        16.98063
467.22         16.8427
467.67        16.82342
468.11        16.87424
468.55        17.02911
468.99        17.20968
469.44        17.32746
469.88        17.36208
470.32        17.33188
470.77        17.27971
471.21        17.27419
471.65        17.33227
472.10        17.43336
472.54        17.53208
472.98        17.57053
473.42        17.53972
473.87        17.47118
474.31        17.39667
474.75        17.38099
475.20         17.4416
475.64        17.54391
476.08        17.65265
476.52         17.7592
476.97        17.85669
477.41        17.86287
477.85        17.75761
478.29        18.01045
478.74        17.85294
479.18        17.87385
479.62        17.84724
480.06         17.8903
480.50        18.01366
480.95        17.86465
481.39        18.05117
481.83           18.06
482.27        18.07947
482.72          18.113
483.16        18.16682
483.60        18.25927
484.04        18.36015
484.48        18.45606
484.93        18.64486
485.37        18.84351
485.81        18.87239
486.25        19.50705
486.69        18.56169
487.14        18.12475
487.58        18.68638
488.02        19.19665
488.46        19.11584
488.90        19.31671
489.34         19.0612
489.79        18.89186
490.23        19.42542
490.67        19.67864
491.11        19.82704
491.55        19.83405
491.99        19.75842
492.43        19.79411
492.88        19.95286
493.32        20.07924
493.76        20.15881
494.20        20.28067
494.64        20.44821
495.08        20.60677
495.52         20.7489
495.96        20.92832
496.41        21.11761
496.85        21.17969
497.29        21.14655
497.73        21.23973
498.17        21.45335
498.61        21.56264
499.05         21.5738
499.49        21.66588
499.93        21.84225
500.37        22.00637
500.82         22.1409
501.26        22.25465
501.70        22.34254
502.14        22.40405
502.58        22.44432
503.02        22.47296
503.46        22.49767
503.90        22.51931
504.34        22.55377
504.78        22.62428
505.22        22.73304
505.66        22.87289
506.10        23.01648
506.54        23.11741
506.98        23.16311
507.42        23.16586
507.86        23.14939
508.30        23.15156
508.74        23.18525
509.18        23.24341
509.62        23.31393
510.06        23.37604
510.50         23.4243
510.94        23.46485
511.38        23.51163
511.82        23.58649
512.26        23.68744
512.70        23.79714
513.14        23.89063
513.58        23.93163
514.02        23.91221
514.46         23.8492
514.90         23.7536
515.34        23.64342
515.78        23.53455
516.22        23.42927
516.66         23.3528
517.10        23.34116
517.54        23.39743
517.98        23.50994
518.42        23.64331
518.86        23.73647
519.30        23.77021
519.74        23.75711
520.18        23.71633
520.62        23.68299
521.06        23.66667
521.50        23.65274
521.93        23.63747
522.37        23.61065
522.81        23.57311
523.25        23.53666
523.69        23.49487
524.13        23.43349
524.57        23.35567
525.01        23.26653
525.45        23.19452
525.89        23.18504
526.32        23.24147
526.76        23.34259
527.20        23.44843
527.64        23.49419
528.08        23.46368
528.52        23.38123
528.96        23.26937
529.40        23.16393
529.83        23.07832
530.27        23.00821
530.71        22.96358
531.15         22.9667
531.59        23.01416
532.03         23.0947
532.46        23.17238
532.90        23.19258
533.34        23.14456
533.78        23.03073
534.22        22.87729
534.66        22.76493
535.09        22.68734
535.53        22.55478
535.97        22.39774
536.41        22.34385
536.85        22.40158
537.28        22.51268
537.72        22.63497
538.16        22.72122
538.60        22.75459
539.04        22.74707
539.47        22.73137
539.91        22.77444
540.35        22.88297
540.79        23.04319
541.22        23.22277
541.66         23.3364
542.10        23.42931
542.54        23.47136
542.97        23.50058
543.41        23.56162
543.85        23.66101
544.29        23.78666
544.72        23.92038
545.16        24.04612
545.60        24.15554
546.04        24.25505
546.47        24.35549
546.91        24.47711
547.35         24.6231
547.79        24.77773
548.22        24.91241
548.66         25.0394
549.10        25.15716
549.53        25.15164
549.97        25.26642
550.41        25.37358
550.84        25.54376
551.28        25.76506
551.72        26.00064
552.15        26.16416
552.59         26.2531
553.03         26.3246
553.46         26.3908
553.90        26.48593
554.34         26.6197
554.77        26.73905
555.21        26.80892
555.65        27.06692
556.08        26.99597
556.52        27.03171
556.96        27.04188
557.39        27.08546
557.83        27.17768
558.27        27.26591
558.70        27.33729
559.14        27.50529
559.57        27.51709
560.01        27.62034
560.45        27.70789
560.88        27.70468
561.32        27.67114
561.75        27.62835
562.19        27.63383
562.63        27.90067
563.06         28.3041
563.50        28.23951
563.93        27.80426
564.37        27.73612
564.80        28.03197
565.24        28.23031
565.68        28.28776
566.11        28.38648
566.55        28.52578
566.98        28.61827
567.42         28.6953
567.85        28.80736
568.29        28.97192
568.72        29.14649
569.16        29.33653
569.60        29.48713
570.03        29.57381
570.47        29.62247
570.90        29.88706
571.34        29.66356
571.77        29.89815
572.21        29.96445
572.64        30.16421
573.08        30.12861
573.51        30.43421
573.95        30.93235
574.38        30.41212
574.82        30.78963
