SpectraSmart Spectrum 2.9.0.0
--------- Device Information -----------
Spectrum Name :  反射率_0
Saving Time :  2024/05/01 17:05:38
Spectro-Module Model Name : SE2030-DUVN
Spectro-Module Serial Number : OS361AC55029948
Wavelength Start : 200
Wavelength End : 1025
Wavelength Unit : Wavelength(nm)
Spectrum Unit : Reflectance(%)
-----------Spectrum Setting ------------
Integration Time : 20ms
Average : 10
Boxcar : 0
Background removal :  enabled
linearity correction :  enabled
SC :  disabled
Intensity correction :  disabled
DWT denoise :  enabled
savitzky-golay :  disabled
FFT :  disabled
Running average :  disabled
Kalman :  disabled
High pass :  disabled
---------------BEGIN--------------------
Wavelength(nm)             Reflectance(%)
200.29               0
200.75         179.489
201.21        634.0494
201.67       -210.3585
202.13       -59.51271
202.58       -15.70279
203.04        8.792802
203.50        23.34433
203.96        29.56506
204.42        29.28757
204.88        16.67972
205.34       -342.8505
205.80        83.99877
206.26         50.3031
206.72        12.56207
207.18       -148.6854
207.64        293.9633
208.10        131.7453
208.55        89.02839
209.01        67.13502
209.47        57.61035
209.93        55.43237
210.39        55.80006
210.85         58.3704
211.31        64.53256
211.77        85.24841
212.23       -91.13036
212.69        20.36486
213.14         42.5923
213.60        93.86581
214.06       -428.5742
214.52       -63.16361
214.98       -35.72201
215.44       -23.15298
215.90       -4.201346
216.36        250.5864
216.81       -158.1601
217.27        -234.966
217.73        497.5759
218.19        95.09729
218.65         57.6367
219.11        50.00603
219.57        57.16851
220.02        106.2279
220.48        72.58372
220.94        45.69963
221.40        39.77017
221.86        39.55437
222.32        43.08672
222.77        50.27651
223.23         62.1609
223.69        77.56848
224.15        84.63469
224.61        78.69403
225.06        67.99068
225.52        60.45591
225.98        58.54034
226.44        61.49136
226.90        68.81773
227.36        78.96465
227.81        84.10089
228.27        81.02878
228.73        74.60259
229.19        69.69592
229.65        69.24385
230.10        72.92619
230.56        80.05514
231.02        88.69151
231.48        92.73093
231.93        89.60938
232.39        83.13683
232.85        76.59309
233.31          72.804
233.77        71.78235
234.22        72.19615
234.68        73.53951
235.14        75.39745
235.60        77.77501
236.05        81.52825
236.51         86.5768
236.97        91.38455
237.43        93.79408
237.88        92.80114
238.34        89.44723
238.80        87.05352
239.26        86.47525
239.71         87.9977
240.17        89.89719
240.63        86.53598
241.08        75.36136
241.54        61.30821
242.00        51.49464
242.46        49.70016
242.91         56.4049
243.37        73.16148
243.83        102.9744
244.28        126.2195
244.74        119.7177
245.20        100.7334
245.66        83.96353
246.11        72.37173
246.57        62.86543
247.03        51.14286
247.48        32.90027
247.94        8.395901
248.40       -13.38081
248.85       -27.31624
249.31        -25.9313
249.77        -9.90914
250.22        10.94153
250.68        30.62827
251.14        44.42022
251.59        49.92844
252.05        47.94724
252.51        35.89164
252.96        4.481637
253.42       -31.95635
253.88       -6.361925
254.33        46.03929
254.79        71.76452
255.25        77.48811
255.70        75.18549
256.16        71.58639
256.62        68.98537
257.07        68.91034
257.53         70.9982
257.99        73.44757
258.44        75.41319
258.90         76.9033
259.35         77.5567
259.81        78.00263
260.27        78.01443
260.72        77.33572
261.18        76.42622
261.63        75.12766
262.09        73.98833
262.55        73.07903
263.00        72.28114
263.46        71.72043
263.91        71.13455
264.37         70.6446
264.83        70.13709
265.28        69.59354
265.74        69.08675
266.19        68.35427
266.65         67.5229
267.11        66.55373
267.56        65.61911
268.02        65.11789
268.47        65.03625
268.93        65.21502
269.38        65.36133
269.84        64.95696
270.30        63.91904
270.75        62.43105
271.21        60.77103
271.66        59.20606
272.12        57.91454
272.57        56.73783
273.03        55.77481
273.48         55.0849
273.94        54.67435
274.39        54.45943
274.85        54.24905
275.31        53.64467
275.76        52.58929
276.22          51.302
276.67        49.95934
277.13        48.98496
277.58        48.34992
278.04        47.96677
278.49        47.62956
278.95        47.19534
279.40        46.54774
279.86        45.82905
280.31        45.00586
280.77          44.171
281.22        43.28728
281.68        42.42679
282.13        41.55833
282.59        40.77776
283.04        40.04855
283.50        39.40796
283.95        38.83575
284.41        38.38259
284.86        38.01929
285.32        37.75282
285.77        37.51626
286.22        37.27368
286.68        37.00652
287.13        36.69781
287.59        36.35307
288.04        35.94263
288.50        35.51702
288.95         35.0498
289.41        34.63527
289.86        34.30262
290.32        34.08697
290.77        33.95029
291.22        33.84516
291.68        33.68314
292.13        33.44365
292.59        33.19145
293.04        32.96058
293.50        32.86381
293.95        32.90458
294.40        33.04926
294.86        33.27602
295.31        33.56292
295.77        33.87854
296.22        34.21091
296.68        34.50143
297.13        34.63749
297.58        34.62662
298.04        34.53238
298.49        34.42722
298.95        34.47234
299.40        34.68847
299.85        35.02124
300.31        35.45798
300.76        35.96592
301.21         36.5169
301.67        37.12263
302.12         37.6502
302.58        37.92623
303.03        37.90819
303.48        37.67268
303.94        37.43142
304.39        37.42539
304.84        37.72282
305.30        38.23313
305.75        38.78005
306.20        39.11105
306.66        39.17113
307.11        39.02298
307.57        38.79698
308.02        38.62302
308.47        38.55733
308.93        38.55943
309.38        38.55316
309.83         38.4808
310.29        38.33475
310.74        38.13963
311.19        37.94186
311.65        37.79167
312.10        37.69561
312.55        37.63832
313.00        37.60151
313.46        37.55816
313.91        37.48959
314.36        37.39781
314.82        37.28204
315.27        37.15654
315.72         37.0156
316.18        36.85861
316.63        36.65895
317.08        36.38874
317.53        36.04692
317.99        35.65233
318.44        35.23664
318.89        34.86533
319.35        34.56478
319.80        34.32478
320.25         34.1304
320.70        33.94817
321.16        33.75937
321.61        33.58055
322.06         33.4127
322.51          33.262
322.97        33.12067
323.42        32.99067
323.87         32.8536
324.32        32.69613
324.78        32.50905
325.23        32.30664
325.68        32.09267
326.13        31.88175
326.59        31.66842
327.04        31.46226
327.49        31.24715
327.94        31.00667
328.39        30.73918
328.85        30.44603
329.30        30.15616
329.75        29.88184
330.20        29.63214
330.66        29.39448
331.11        29.18843
331.56        29.01014
332.01        28.85736
332.46        28.73345
332.92        28.60461
333.37         28.4473
333.82        28.24711
334.27        28.01786
334.72        27.80522
335.17        27.69307
335.63        27.69179
336.08        27.78508
336.53         27.9202
336.98         28.0261
337.43        28.07407
337.88        28.08295
338.34        28.03267
338.79        27.91321
339.24        27.72623
339.69        27.47638
340.14        27.23262
340.59         27.1048
341.05        27.10849
341.50        27.22562
341.95        27.37282
342.40        27.40972
342.85        27.30527
343.30        27.10796
343.75        26.89384
344.20        26.78188
344.66        26.80194
345.11        26.90026
345.56        27.03669
346.01        27.14231
346.46        27.18852
346.91        27.19902
347.36        27.16497
347.81         27.0726
348.26        26.93034
348.72        26.74977
349.17        26.55618
349.62        26.43167
350.07        26.38862
350.52        26.40144
350.97        26.42367
351.42        26.37309
351.87        26.23562
352.32        26.05532
352.77         25.8485
353.22        25.64135
353.67        25.44936
354.13         25.2604
354.58        25.11622
355.03        25.11647
355.48        25.26476
355.93          25.542
356.38        25.80374
356.83        25.80688
357.28        25.51224
357.73        25.00234
358.18        24.48421
358.63        24.26736
359.08        24.40589
359.53        24.79626
359.98        25.25525
360.43           25.47
360.88        25.35229
361.33        25.01227
361.78        24.57878
362.23        24.23866
362.68         24.0471
363.13        23.93818
363.58        23.88119
364.03        23.83485
364.48        23.77394
364.93        23.71562
365.38        23.63903
365.83        23.50244
366.28        23.29859
366.73        23.03491
367.18        22.73449
367.63        22.44444
368.08        22.19069
368.53        21.97505
368.98        21.79579
369.43         21.6428
369.88        21.50494
370.33        21.37325
370.78         21.2587
371.23        21.18083
371.68        21.13897
372.13        21.13041
372.58         21.0928
373.03        20.93121
373.48        20.63563
373.93        20.23342
374.38        19.83759
374.83        19.63834
375.28        19.67557
375.72        19.88578
376.17        20.13363
376.62        20.20618
377.07        20.05486
377.52        19.74584
377.97        19.38585
378.42        19.14248
378.87        19.05974
379.32        19.08324
379.77        19.13846
380.22        19.11422
380.67        18.98412
381.11        18.79195
381.56        18.59359
382.01         18.4808
382.46        18.47722
382.91        18.54776
383.36        18.63562
383.81         18.6598
384.26        18.59592
384.71        18.46281
385.15        18.29967
385.60        18.18555
386.05        18.13254
386.50        18.12472
386.95        18.10963
387.40          18.008
387.85        17.81756
388.29        17.56281
388.74        17.35159
389.19        17.27708
389.64        17.34956
390.09        17.51948
390.54        17.71463
390.98        17.81742
391.43        17.80031
391.88        17.70805
392.33        17.56861
392.78        17.42957
393.23        17.31117
393.67        17.16908
394.12         17.0502
394.57        17.04055
395.02        17.11741
395.47        17.15478
395.91        17.13423
396.36        17.11513
396.81        17.09899
397.26        17.03854
397.71        16.94991
398.15        16.90051
398.60          16.917
399.05        16.90394
399.50        16.87442
399.95        16.97396
400.39        17.14548
400.84        17.08706
401.29        16.81744
401.74        16.64369
402.18        16.59197
402.63        16.48156
403.08        16.34083
403.53        16.28978
403.97        16.33034
404.42         16.4322
404.87        16.53096
405.32        16.52233
405.76        16.38526
406.21        16.16276
406.66        15.92899
407.11        15.80314
407.55        15.81939
408.00        15.94325
408.45        16.11551
408.90        16.20658
409.34        16.18814
409.79        16.13428
410.24        16.07885
410.68        16.03384
411.13        16.01494
411.58        16.02347
412.03        16.03992
412.47         16.0268
412.92        15.97278
413.37        15.89609
413.81        15.81627
414.26        15.77163
414.71        15.76571
415.15        15.79877
415.60        15.83661
416.05        15.84041
416.49        15.80178
416.94        15.73033
417.39         15.6714
417.83        15.69678
418.28        15.81535
418.73        15.99641
419.17        16.17438
419.62        16.23952
420.07        16.17445
420.51        16.01725
420.96        15.83719
421.41        15.71748
421.85          15.677
422.30        15.69231
422.74        15.74453
423.19        15.82097
423.64        15.90524
424.08        16.01344
424.53        16.09325
424.98        16.07715
425.42        15.96036
425.87        15.77063
426.31        15.57502
426.76        15.49244
427.21        15.54089
427.65         15.6761
428.10        15.86533
428.54         16.0456
428.99        16.18908
429.44        16.33949
429.88        16.42255
430.33        16.33382
430.77        16.07854
431.22        15.71287
431.66        15.36834
432.11        15.27696
432.56        15.42524
433.00        15.70915
433.45        15.94426
433.89         15.7627
434.34        15.17415
434.78         15.1986
435.23        15.88608
435.67        16.12196
436.12        15.90158
436.57        15.82101
437.01        15.91093
437.46        15.91528
437.90        15.83361
438.35        15.76306
438.79        15.71474
439.24        15.66404
439.68        15.64288
440.13        15.76182
440.57         15.9569
441.02         16.0551
441.46        16.03509
441.91        15.87929
442.35          15.668
442.80        15.78695
443.24        16.12216
443.69        16.03341
444.13        15.59185
444.58        15.45135
445.02        15.62525
445.47        15.76661
445.91        15.83759
446.36        15.94336
446.80        16.06704
447.24        16.17466
447.69        16.25809
448.13        16.30803
448.58        16.32406
449.02        16.30749
449.47        16.27302
449.91        16.23113
450.36        16.19444
450.80        16.16172
451.25        16.13362
451.69        16.09748
452.13        16.05382
452.58        16.00891
453.02        15.96911
453.47        15.95455
453.91        15.96442
454.36        15.99635
454.80        16.02716
455.24        16.01826
455.69        15.96723
456.13         15.8766
456.58        15.79049
457.02         15.7544
457.46        15.78032
457.91        15.85131
458.35        15.92281
458.79        15.90042
459.24        15.77983
459.68        15.63584
460.13        15.54216
460.57        15.29366
461.01        15.35225
461.46        15.35899
461.90        15.42828
462.34        15.46216
462.79         15.5322
463.23        15.57461
463.68        15.61593
464.12        15.66045
464.56        15.70686
465.01        15.76883
465.45        15.80258
465.89         15.7719
466.34          15.681
466.78        15.53908
467.22        15.39111
467.67        15.34271
468.11        15.35106
468.55        15.44817
468.99        15.57634
469.44        15.67467
469.88        15.72679
470.32        15.74454
470.77        15.74076
471.21        15.73367
471.65        15.73082
472.10        15.72711
472.54        15.71633
472.98        15.70097
473.42        15.68358
473.87        15.67401
474.31        15.66855
474.75        15.67607
475.20        15.70089
475.64        15.72938
476.08        15.75338
476.52        15.80031
476.97        15.87463
477.41        15.89342
477.85        15.82537
478.29        16.06885
478.74        15.93238
479.18        15.94662
479.62        15.92066
480.06         15.9751
480.50        16.12052
480.95        16.03117
481.39        16.23479
481.83        16.24839
482.27        16.23459
482.72        16.19835
483.16        16.16504
483.60        16.19139
484.04        16.27033
484.48        16.36432
484.93        16.52938
485.37         16.7294
485.81        16.79842
486.25        17.16318
486.69        16.35166
487.14        16.00137
487.58        16.60097
488.02        17.27866
488.46        16.87988
488.90        16.83136
489.34         17.0007
489.79        16.88466
490.23        17.24769
490.67        17.54901
491.11        17.91084
491.55        17.96076
491.99         17.7552
492.43        17.72881
492.88        17.90458
493.32        18.00761
493.76        18.02645
494.20        18.10065
494.64        18.23938
495.08          18.385
495.52        18.52613
495.96        18.71405
496.41        18.92371
496.85        18.98673
497.29        18.94597
497.73        19.12494
498.17        19.47244
498.61        19.54022
499.05        19.36156
499.49        19.35635
499.93        19.54333
500.37        19.69551
500.82        19.78933
501.26        19.88337
501.70        19.97224
502.14        20.04537
502.58        20.10332
503.02        20.14659
503.46        20.18076
503.90        20.20918
504.34        20.25563
504.78        20.35569
505.22        20.51309
505.66        20.71569
506.10        20.92283
506.54        21.06668
506.98        21.12838
507.42        21.12495
507.86         21.0917
508.30        21.08565
508.74        21.12427
509.18        21.19447
509.62        21.27414
510.06        21.32609
510.50        21.34156
510.94        21.33465
511.38        21.33043
511.82        21.36629
512.26        21.44756
512.70        21.55678
513.14        21.66392
513.58        21.72405
514.02        21.72633
514.46         21.6865
514.90        21.62538
515.34         21.5769
515.78        21.55397
516.22        21.54785
516.66        21.55491
517.10        21.56877
517.54        21.58517
517.98        21.60674
518.42        21.62893
518.86        21.64187
519.30        21.64344
519.74        21.63541
520.18        21.61936
520.62        21.60031
521.06        21.57944
521.50        21.55241
521.93        21.52687
522.37        21.50978
522.81        21.50429
523.25        21.51184
523.69         21.5132
524.13        21.47682
524.57        21.40153
525.01        21.29913
525.45        21.20586
525.89        21.17869
526.32        21.22597
526.76        21.32397
527.20        21.43206
527.64        21.48457
528.08        21.46285
528.52        21.38872
528.96        21.28346
529.40        21.18101
529.83        21.09251
530.27        21.01312
530.71        20.94571
531.15        20.90105
531.59         20.8779
532.03        20.87398
532.46        20.87094
532.90         20.8408
533.34        20.78037
533.78         20.6849
534.22        20.57164
534.66        20.50315
535.09        20.46688
535.53         20.3814
535.97        20.26564
536.41         20.2225
536.85        20.25815
537.28        20.32407
537.72        20.38975
538.16        20.42711
538.60        20.42591
539.04        20.39242
539.47        20.35959
539.91        20.39156
540.35        20.49327
540.79        20.65391
541.22        20.82889
541.66        20.91589
542.10        20.95312
542.54        20.92169
542.97        20.88432
543.41        20.92588
543.85        21.06055
544.29        21.26423
544.72        21.48751
545.16        21.66468
545.60         21.7762
546.04        21.84067
546.47        21.89877
546.91        22.01955
547.35        22.21553
547.79        22.45403
548.22        22.67351
548.66        22.83334
549.10        22.92373
549.53        22.86012
549.97        22.89881
550.41        22.97808
550.84        23.17586
551.28        23.46279
551.72        23.77833
552.15        24.00007
552.59        24.11304
553.03        24.18524
553.46        24.24149
553.90        24.33353
554.34        24.47752
554.77        24.61642
555.21        24.71743
555.65        25.00033
556.08         24.9846
556.52        25.07177
556.96        25.13099
557.39        25.20411
557.83        25.30212
558.27         25.3775
558.70        25.42641
559.14        25.56802
559.57        25.57229
560.01           25.67
560.45        25.75227
560.88        25.73379
561.32        25.67023
561.75        25.58847
562.19        25.56267
562.63        25.81532
563.06        26.23439
563.50         26.2658
563.93         25.9663
564.37        25.93735
564.80        26.18631
565.24        26.38235
565.68        26.48541
566.11        26.59063
566.55        26.69905
566.98        26.77565
567.42        26.84883
567.85        26.94444
568.29        27.08021
568.72         27.2199
569.16        27.36589
569.60        27.51007
570.03        27.64469
570.47        27.69953
570.90         27.8743
571.34        27.93639
571.77        28.05877
572.21        28.11822
572.64        28.21751
573.08         28.3595
573.51        28.91002
573.95        29.10273
574.38        28.84167
574.82        28.71829
