SpectraSmart Spectrum 2.9.0.0
--------- Device Information -----------
Spectrum Name :  反射率_0
Saving Time :  2024/05/01 17:16:24
Spectro-Module Model Name : SE2030-DUVN
Spectro-Module Serial Number : OS361AC55029948
Wavelength Start : 200
Wavelength End : 1025
Wavelength Unit : Wavelength(nm)
Spectrum Unit : Reflectance(%)
-----------Spectrum Setting ------------
Integration Time : 20ms
Average : 10
Boxcar : 0
Background removal :  enabled
linearity correction :  enabled
SC :  disabled
Intensity correction :  disabled
DWT denoise :  enabled
savitzky-golay :  disabled
FFT :  disabled
Running average :  disabled
Kalman :  disabled
High pass :  disabled
---------------BEGIN--------------------
Wavelength(nm)             Reflectance(%)
200.29               0
200.75        295.3639
201.21        1202.258
201.67       -493.8211
202.13       -184.2376
202.58       -90.05473
203.04       -37.68406
203.50         -7.3478
203.96        3.716494
204.42       -2.612435
204.88       -46.64738
205.34       -1308.661
205.80        232.6542
206.26        170.3568
206.72        175.3931
207.18        328.2267
207.64       -184.6784
208.10       -27.94976
208.55        2.386386
209.01        11.70942
209.47        13.41456
209.93         10.7835
210.39        3.590879
210.85       -8.142099
211.31       -28.68011
211.77       -94.39526
212.23        407.8163
212.69        106.9673
213.14        102.7887
213.60        183.9809
214.06       -808.0432
214.52       -126.1171
214.98       -82.72398
215.44        -75.8485
215.90       -94.14127
216.36       -483.4828
216.81        126.3718
217.27        175.2935
217.73       -502.1413
218.19       -144.8162
218.65       -130.4303
219.11       -165.8222
219.57       -302.1318
220.02       -823.4693
220.48       -370.0231
220.94       -94.98961
221.40       -29.73437
221.86        -7.94804
222.32       0.2814941
222.77        3.756428
223.23        5.107644
223.69        5.006788
224.15        4.352959
224.61        4.121047
225.06         4.03536
225.52         4.71572
225.98        6.874582
226.44        10.76833
226.90        16.92572
227.36        24.72307
227.81        29.14273
228.27        27.73934
228.73        23.57868
229.19        19.67535
229.65        17.61767
230.10        17.12261
230.56        17.76606
231.02        19.18336
231.48        20.37031
231.93        20.76034
232.39        20.84822
232.85        21.11921
233.31         22.0901
233.77        23.64416
234.22        25.43422
234.68        27.06922
235.14         28.3702
235.60        29.39118
236.05        30.34762
236.51        31.29725
236.97        31.96573
237.43        31.91139
237.88        30.85036
238.34        29.03107
238.80        27.17007
239.26        25.17628
239.71         22.9516
240.17        19.25995
240.63        11.62641
241.08        1.496413
241.54       -7.032179
242.00       -10.87159
242.46       -8.936976
242.91      -0.5427396
243.37        16.78621
243.83        48.01954
244.28        78.69073
244.74        82.19401
245.20         69.4701
245.66         55.4378
246.11        44.71171
246.57        35.00484
247.03        22.56106
247.48        1.768021
247.94       -29.19729
248.40       -60.29096
248.85       -83.88922
249.31       -85.41515
249.77       -60.46634
250.22       -25.19104
250.68         8.33988
251.14        32.16888
251.59        42.49765
252.05        40.91469
252.51        24.45923
252.96       -23.05667
253.42       -95.46062
253.88       -92.10189
254.33       -27.67254
254.79        13.46038
255.25        29.61438
255.70        34.62767
256.16        36.39701
256.62        37.31683
257.07        38.57254
257.53        40.27016
257.99        41.63664
258.44        42.44939
258.90        42.87132
259.35        42.77702
259.81        42.58055
260.27        42.18742
260.72        41.50934
261.18        40.84153
261.63        40.04748
262.09        39.43177
262.55        39.06441
263.00         38.8235
263.46        38.69314
263.91           38.44
264.37        37.98135
264.83        37.28811
265.28        36.46885
265.74        35.62373
266.19        34.68629
266.65        33.77567
267.11        32.84108
267.56        32.08122
268.02        31.88976
268.47        32.25438
268.93        33.00618
269.38        33.76522
269.84         33.8534
270.30        33.14714
270.75        31.85542
271.21        30.35577
271.66        29.11702
272.12        28.34197
272.57         27.8479
273.03        27.57455
273.48        27.37924
273.94        27.21181
274.39        27.09997
274.85        27.00546
275.31        26.81402
275.76        26.49987
276.22        26.11117
276.67        25.66377
277.13        25.28173
277.58        24.93369
278.04        24.61252
278.49        24.27081
278.95        23.93675
279.40         23.5708
279.86        23.22469
280.31        22.82906
280.77        22.35371
281.22        21.77965
281.68        21.18203
282.13        20.61163
282.59        20.20464
283.04        19.95489
283.50        19.84857
283.95        19.81493
284.41        19.78542
284.86        19.72126
285.32        19.64702
285.77        19.58344
286.22        19.58392
286.68        19.65836
287.13        19.77133
287.59        19.87479
288.04        19.85519
288.50        19.72264
288.95        19.48649
289.41        19.27012
289.86        19.18819
290.32        19.27311
290.77        19.47409
291.22        19.69139
291.68        19.76738
292.13        19.67636
292.59        19.50421
293.04        19.33536
293.50         19.3472
293.95        19.56224
294.40        19.92269
294.86        20.36936
295.31        20.82364
295.77        21.23833
296.22        21.63214
296.68        21.96639
297.13        22.17271
297.58          22.264
298.04        22.27922
298.49        22.29327
298.95        22.46376
299.40        22.80352
299.85        23.25389
300.31        23.75551
300.76         24.2212
301.21        24.61451
301.67        24.96892
302.12        25.22448
302.58         25.3136
303.03        25.23168
303.48        25.03034
303.94        24.84862
304.39        24.84344
304.84        25.05685
305.30         25.4235
305.75        25.84061
306.20        26.15766
306.66        26.32842
307.11        26.38072
307.57        26.34453
308.02        26.22558
308.47        26.05307
308.93         25.8302
309.38        25.57929
309.83        25.38303
310.29        25.26472
310.74        25.20935
311.19         25.1818
311.65        25.10806
312.10        24.96947
312.55        24.79053
313.00        24.61976
313.46        24.53285
313.91        24.53645
314.36        24.59719
314.82         24.6579
315.27         24.6407
315.72        24.51906
316.18        24.32323
316.63        24.08103
317.08        23.83405
317.53        23.59874
317.99        23.36925
318.44        23.14395
318.89        22.93923
319.35         22.7607
319.80        22.60802
320.25        22.47713
320.70        22.35088
321.16        22.21861
321.61        22.08928
322.06         21.9576
322.51        21.82044
322.97        21.67471
323.42         21.5278
323.87        21.38576
324.32        21.26789
324.78        21.17366
325.23        21.10581
325.68         21.0463
326.13        20.97156
326.59        20.86735
327.04        20.74702
327.49        20.61135
327.94        20.47134
328.39        20.33184
328.85        20.18645
329.30        20.03995
329.75        19.88206
330.20        19.71297
330.66        19.53072
331.11        19.36032
331.56           19.22
332.01        19.11541
332.46        19.04595
332.92        18.97683
333.37        18.87308
333.82         18.7202
334.27        18.53379
334.72        18.36303
335.17        18.29548
335.63        18.34197
336.08        18.47897
336.53        18.64608
336.98        18.75694
337.43         18.7814
337.88        18.74437
338.34        18.64487
338.79        18.49662
339.24        18.31232
339.69        18.09031
340.14        17.88478
340.59         17.7815
341.05        17.78868
341.50        17.89292
341.95        18.02301
342.40        18.05692
342.85        17.97018
343.30        17.81049
343.75        17.63857
344.20         17.5497
344.66        17.57348
345.11         17.6634
345.56        17.81112
346.01        17.99924
346.46        18.20085
346.91         18.4106
347.36         18.5715
347.81        18.59978
348.26        18.48868
348.72        18.27572
349.17        18.01087
349.62        17.81423
350.07        17.71862
350.52        17.69173
350.97        17.70565
351.42        17.70583
351.87        17.67824
352.32        17.65856
352.77        17.62757
353.22        17.55427
353.67        17.44017
354.13        17.28413
354.58        17.15631
355.03         17.1967
355.48        17.41946
355.93        17.79136
356.38        18.15196
356.83        18.23095
357.28        17.98079
357.73        17.49531
358.18        16.99174
358.63        16.79399
359.08        16.96201
359.53        17.38777
359.98        17.88752
360.43        18.14679
360.88        18.07468
361.33         17.7825
361.78        17.39591
362.23        17.09659
362.68        16.94177
363.13        16.87021
363.58        16.85527
364.03        16.86239
364.48        16.86626
364.93        16.87659
365.38        16.87727
365.83        16.83475
366.28        16.74083
366.73        16.60376
367.18        16.41863
367.63        16.18608
368.08        15.92675
368.53        15.65728
368.98        15.42845
369.43        15.31119
369.88        15.31081
370.33        15.39696
370.78        15.52118
371.23        15.59444
371.68        15.57897
372.13        15.49691
372.58        15.34583
373.03         15.1244
373.48         14.8469
373.93        14.51844
374.38        14.19786
374.83        13.98645
375.28        13.91051
375.72         13.9457
376.17        14.03258
376.62        14.07253
377.07        14.03601
377.52        13.94612
377.97        13.83065
378.42        13.73616
378.87        13.67566
379.32        13.63195
379.77        13.58785
380.22        13.51943
380.67        13.42507
381.11        13.32345
381.56        13.23298
382.01        13.18516
382.46        13.18767
382.91        13.22485
383.36          13.281
383.81        13.33572
384.26        13.37303
384.71        13.38739
385.15        13.36565
385.60        13.30397
386.05        13.20255
386.50         13.0807
386.95        12.93938
387.40         12.7807
387.85        12.62045
388.29        12.45174
388.74         12.3506
389.19        12.37686
389.64        12.52592
390.09        12.76075
390.54        12.99274
390.98        13.07861
391.43        12.99074
391.88        12.78757
392.33        12.53752
392.78        12.34394
393.23        12.23576
393.67        12.16042
394.12        12.12723
394.57         12.1587
395.02        12.22686
395.47        12.25313
395.91        12.23353
396.36        12.22002
396.81        12.21829
397.26        12.18807
397.71        12.13338
398.15        12.09432
398.60        12.08913
399.05        12.05176
399.50        12.00269
399.95        12.05945
400.39        12.18234
400.84        12.15404
401.29        11.97013
401.74        11.81933
402.18        11.71455
402.63         11.5398
403.08        11.34394
403.53        11.25404
403.97        11.28008
404.42        11.38626
404.87        11.50171
405.32        11.51143
405.76         11.3892
406.21        11.17903
406.66        10.95067
407.11        10.81652
407.55        10.80856
408.00        10.89246
408.45         11.0156
408.90        11.07017
409.34        11.03161
409.79        10.95715
410.24        10.87834
410.68        10.81305
411.13         10.7738
411.58         10.7575
412.03        10.74682
412.47         10.7101
412.92        10.64166
413.37         10.5593
413.81        10.47978
414.26        10.43408
414.71        10.42408
415.15        10.44427
415.60        10.47306
416.05         10.4898
416.49         10.4846
416.94        10.46114
417.39        10.42961
417.83        10.40695
418.28        10.39791
418.73        10.39742
419.17        10.39234
419.62        10.35422
420.07         10.2861
420.51        10.19844
420.96        10.12628
421.41        10.10353
421.85        10.13091
422.30        10.19548
422.74        10.27411
423.19        10.34189
423.64         10.3853
424.08        10.41473
424.53        10.40709
424.98        10.34503
425.42        10.23448
425.87        10.09385
426.31        9.950933
426.76         9.85952
427.21        9.827661
427.65        9.838071
428.10        9.895917
428.54        10.00497
428.99         10.1475
429.44        10.32702
429.88        10.46587
430.33        10.45333
430.77        10.28379
431.22        10.00949
431.66        9.719124
432.11        9.571804
432.56        9.566876
433.00        9.638436
433.45        9.695758
433.89        9.555419
434.34        9.227483
434.78        9.316351
435.23        9.834758
435.67        10.05768
436.12        9.961634
436.57        9.926988
437.01        9.973663
437.46        9.943331
437.90        9.841925
438.35        9.731006
438.79        9.633546
439.24        9.560169
439.68        9.536016
440.13        9.623663
440.57        9.771675
441.02        9.848215
441.46        9.832866
441.91        9.720529
442.35        9.570053
442.80        9.631408
443.24         9.83638
443.69        9.790849
444.13        9.526679
444.58        9.428337
445.02        9.501865
445.47        9.542275
445.91        9.543193
446.36        9.592172
446.80        9.683185
447.24        9.785373
447.69         9.87634
448.13        9.925642
448.58        9.924686
449.02        9.882502
449.47        9.815634
449.91        9.742555
450.36        9.677023
450.80        9.616134
451.25        9.562206
451.69        9.510394
452.13        9.461811
452.58        9.422009
453.02         9.39348
453.47        9.386059
453.91        9.397769
454.36         9.42581
454.80        9.454796
455.24        9.457211
455.69        9.429488
456.13         9.37185
456.58        9.313445
457.02        9.285415
457.46        9.296812
457.91        9.338164
458.35        9.376397
458.79        9.344573
459.24        9.241472
459.68        9.112647
460.13        9.019669
460.57         8.86577
461.01        8.923813
461.46        8.976899
461.90        9.069215
462.34        9.102213
462.79         9.10934
463.23        9.063693
463.68        9.011922
464.12        9.006354
464.56        9.057981
465.01        9.156137
465.45        9.243212
465.89        9.250328
466.34        9.173254
466.78        9.030765
467.22        8.878391
467.67        8.827787
468.11        8.865476
468.55        8.993628
468.99        9.147742
469.44         9.24516
469.88        9.266327
470.32        9.233418
470.77        9.176782
471.21        9.140353
471.65        9.140628
472.10        9.161727
472.54        9.190393
472.98        9.214879
473.42        9.230845
473.87        9.249939
474.31        9.264775
474.75        9.272923
475.20        9.276352
475.64        9.266269
476.08        9.251166
476.52         9.26855
476.97         9.32545
477.41        9.372293
477.85        9.369881
478.29        9.520755
478.74        9.411231
479.18        9.364999
479.62        9.302266
480.06        9.346384
480.50        9.509085
480.95        9.573548
481.39        9.814727
481.83        9.882267
482.27        9.863129
482.72        9.785625
483.16        9.690794
483.60         9.66214
484.04        9.705429
484.48        9.783348
484.93        9.934433
485.37        10.12338
485.81        10.22056
486.25        10.61811
486.69        9.934528
487.14        9.745328
487.58         10.2854
488.02        10.30643
488.46        10.18202
488.90        10.31039
489.34        10.20569
489.79        10.21991
490.23        10.55909
490.67        10.77905
491.11        10.92752
491.55        10.85386
491.99        10.63621
492.43        10.57617
492.88        10.70627
493.32        10.84137
493.76        10.94699
494.20        11.06563
494.64        11.18927
495.08        11.29589
495.52        11.38103
495.96        11.48111
496.41        11.58609
496.85        11.58945
497.29        11.53306
497.73        11.63935
498.17        11.88196
498.61        11.98372
499.05        11.94079
499.49        11.97324
499.93        12.08451
500.37        12.14313
500.82        12.15919
501.26        12.20633
501.70        12.29113
502.14        12.39462
502.58        12.49164
503.02        12.54266
503.46        12.54338
503.90         12.5109
504.34        12.48461
504.78        12.52627
505.22        12.64792
505.66        12.82629
506.10        13.01897
506.54        13.15596
506.98        13.21509
507.42        13.21708
507.86        13.18423
508.30        13.15161
508.74        13.13523
509.18        13.12826
509.62        13.13297
510.06        13.15428
510.50        13.19128
510.94        13.24236
511.38        13.30595
511.82        13.37611
512.26        13.44578
512.70        13.51206
513.14        13.55591
513.58        13.55053
514.02        13.49411
514.46        13.39669
514.90        13.28915
515.34        13.22191
515.78        13.20952
516.22        13.24103
516.66        13.29236
517.10        13.32306
517.54        13.32159
517.98        13.29856
518.42        13.27127
518.86         13.2675
519.30        13.29317
519.74         13.3367
520.18        13.37712
520.62        13.38464
521.06        13.35233
521.50        13.28865
521.93        13.21731
522.37        13.17205
522.81        13.16346
523.25        13.18307
523.69        13.20516
524.13        13.18867
524.57        13.12777
525.01        13.03822
525.45          12.952
525.89        12.91867
526.32        12.94677
526.76        13.01407
527.20        13.09114
527.64        13.13018
528.08        13.11749
528.52        13.07156
528.96        13.00322
529.40        12.92908
529.83        12.85748
530.27        12.78656
530.71        12.73082
531.15        12.71755
531.59        12.74784
532.03        12.81243
532.46        12.87993
532.90         12.8992
533.34        12.86072
533.78         12.7715
534.22        12.65978
534.66        12.59105
535.09        12.56533
535.53        12.52617
535.97        12.47524
536.41        12.46086
536.85         12.4828
537.28        12.51643
537.72          12.551
538.16        12.58203
538.60        12.60516
539.04        12.61934
539.47        12.63262
539.91        12.66714
540.35        12.72331
540.79          12.801
541.22        12.88766
541.66        12.94277
542.10        12.99526
542.54        13.02527
542.97        13.05711
543.41        13.12241
543.85        13.22315
544.29        13.35021
544.72        13.48269
545.16        13.59359
545.60        13.67525
546.04        13.73515
546.47        13.79037
546.91        13.87197
547.35         13.9861
547.79        14.11886
548.22        14.24285
548.66        14.34818
549.10        14.43123
549.53        14.43067
549.97        14.50005
550.41        14.58562
550.84        14.73082
551.28        14.92169
551.72        15.11927
552.15        15.24551
552.59        15.29415
553.03        15.31041
553.46        15.31942
553.90        15.36876
554.34        15.47081
554.77        15.58427
555.21        15.68061
555.65        15.88612
556.08        15.89067
556.52        15.95296
556.96         15.9892
557.39        16.02494
557.83        16.06982
558.27        16.09612
558.70        16.10958
559.14        16.20103
559.57        16.22973
560.01        16.32691
560.45        16.41515
560.88        16.45704
561.32        16.48856
561.75        16.40938
562.19        16.46391
562.63          16.623
563.06        16.87506
563.50         16.8623
563.93        16.63785
564.37        16.61128
564.80        16.78938
565.24        16.95277
565.68         17.0658
566.11        17.17771
566.55        17.28366
566.98         17.3632
567.42        17.43878
567.85        17.53531
568.29        17.66434
568.72        17.80314
569.16        17.94939
569.60        18.07091
570.03        18.15451
570.47        18.21406
570.90         18.3471
571.34        18.32961
571.77        18.47666
572.21        18.56626
572.64        18.69381
573.08        18.76408
573.51        19.16948
573.95        19.19501
574.38        19.12443
574.82        19.31073
