SpectraSmart Spectrum 2.9.0.0
--------- Device Information -----------
Spectrum Name :  反射率_0
Saving Time :  2024/05/01 16:51:12
Spectro-Module Model Name : SE2030-DUVN
Spectro-Module Serial Number : OS361AC55029948
Wavelength Start : 200
Wavelength End : 1025
Wavelength Unit : Wavelength(nm)
Spectrum Unit : Reflectance(%)
-----------Spectrum Setting ------------
Integration Time : 20ms
Average : 10
Boxcar : 0
Background removal :  enabled
linearity correction :  enabled
SC :  disabled
Intensity correction :  disabled
DWT denoise :  enabled
savitzky-golay :  disabled
FFT :  disabled
Running average :  disabled
Kalman :  disabled
High pass :  disabled
---------------BEGIN--------------------
Wavelength(nm)             Reflectance(%)
200.29               0
200.75        334.6832
201.21        1129.418
201.67       -394.1287
202.13        -130.193
202.58       -57.08074
203.04       -19.49633
203.50       0.1543028
203.96        3.716713
204.42       -9.894072
204.88       -69.76092
205.34        -1697.44
205.80        289.4854
206.26        210.2451
206.72        216.3907
207.18        400.1522
207.64       -199.7401
208.10       -9.140566
208.55        30.50554
209.01        43.23012
209.47        42.77959
209.93        33.93955
210.39         17.4409
210.85       -4.569502
211.31       -34.15307
211.77       -112.1994
212.23        452.8344
212.69         111.028
213.14        104.8931
213.60        193.1876
214.06       -887.7045
214.52       -145.0948
214.98       -98.82762
215.44       -93.39087
215.90       -119.3723
216.36       -636.5167
216.81        170.8629
217.27        232.6404
217.73       -654.4396
218.19       -183.0631
218.65       -154.9437
219.11       -180.1311
219.57       -290.4695
220.02       -710.8414
220.48       -327.5902
220.94       -104.4896
221.40       -51.62526
221.86       -33.10926
222.32       -23.81979
222.77       -16.33152
223.23       -8.390229
223.69        1.737449
224.15        10.79684
224.61        14.24817
225.06         14.0038
225.52        12.54399
225.98        11.04733
226.44        9.610312
226.90        7.569677
227.36        5.756945
227.81        6.836582
228.27        10.57957
228.73        14.81188
229.19        17.81139
229.65         18.7774
230.10        18.09199
230.56        16.34886
231.02        13.84199
231.48         12.0372
231.93        11.83785
232.39        12.47096
232.85        13.96479
233.31        16.48431
233.77        19.61478
234.22        23.19307
234.68        26.12188
235.14        27.21265
235.60        26.26814
236.05         23.0699
236.51        18.09055
236.97        14.55803
237.43        15.32931
237.88        20.38907
238.34        26.45013
238.80        28.91241
239.26        26.19935
239.71        17.46257
240.17        1.917595
240.63       -13.50695
241.08       -18.09486
241.54        -11.1768
242.00      -0.8769656
242.46        4.919476
242.91        5.836235
243.37        2.250307
243.83       -1.607745
244.28        10.79344
244.74        34.74892
245.20        52.84582
245.66        61.16811
246.11         61.2897
246.57        54.96101
247.03        40.71465
247.48        13.79009
247.94       -21.95679
248.40       -50.88101
248.85          -68.07
249.31       -66.03652
249.77       -46.96692
250.22       -22.80557
250.68       0.1833387
251.14        15.98887
251.59         20.6815
252.05        14.33315
252.51       -8.836445
252.96       -68.18787
253.42        -149.556
253.88       -128.8694
254.33       -40.33888
254.79        10.74116
255.25        28.21286
255.70        31.56761
256.16        30.85992
256.62        30.18747
257.07        31.97843
257.53        35.51367
257.99        39.04523
258.44        41.71035
258.90         43.1817
259.35        43.43656
259.81        43.17984
260.27        42.54303
260.72         41.6974
261.18        40.98919
261.63        40.20211
262.09        39.50846
262.55        38.84128
263.00        38.11916
263.46        37.41637
263.91        36.68852
264.37        36.07246
264.83         35.5223
265.28        35.03279
265.74        34.50207
266.19        33.59449
266.65        32.41038
267.11        31.02586
267.56        29.80083
268.02        29.37553
268.47        29.79541
268.93        30.78124
269.38        31.89606
269.84        32.36847
270.30        32.01178
270.75        31.06357
271.21        29.79065
271.66        28.49722
272.12        27.38871
272.57        26.34008
273.03        25.50657
273.48        25.08701
273.94        25.08331
274.39        25.40202
274.85        25.78812
275.31        25.82123
275.76        25.41841
276.22        24.73929
276.67         23.9409
277.13        23.32665
277.58        22.91572
278.04        22.65198
278.49        22.41204
278.95        22.11281
279.40        21.69756
279.86        21.24755
280.31        20.80126
280.77        20.46752
281.22        20.22057
281.68        20.05692
282.13        19.86473
282.59        19.55298
283.04        19.09829
283.50        18.58372
283.95        18.10304
284.41        17.83955
284.86        17.81612
285.32        17.96723
285.77        18.21012
286.22        18.44979
286.68        18.65624
287.13        18.84226
287.59        18.98762
288.04        19.01835
288.50        18.95517
288.95         18.7833
289.41        18.61783
289.86        18.57255
290.32        18.68159
290.77        18.90516
291.22        19.14854
291.68        19.25769
292.13        19.20868
292.59        19.08401
293.04        18.97277
293.50        19.05851
293.95        19.36323
294.40        19.82944
294.86        20.37973
295.31        20.90605
295.77        21.35899
296.22        21.76716
296.68        22.12458
297.13        22.41441
297.58        22.65648
298.04        22.86894
298.49        23.09139
298.95        23.42412
299.40        23.86476
299.85        24.37652
300.31        24.91921
300.76        25.43399
301.21        25.89772
301.67        26.33449
302.12        26.69201
302.58        26.91522
303.03        26.99139
303.48        26.96247
303.94        26.94404
304.39        27.05657
304.84        27.33981
305.30        27.74192
305.75        28.17411
306.20        28.51088
306.66        28.71539
307.11        28.80613
307.57        28.81812
308.02        28.76037
308.47        28.66112
308.93         28.5242
309.38         28.3541
309.83        28.20668
310.29        28.10168
310.74        28.03114
311.19        27.98309
311.65        27.91963
312.10        27.82955
312.55        27.72748
313.00        27.63976
313.46        27.60765
313.91        27.62732
314.36        27.67149
314.82        27.70233
315.27        27.67457
315.72        27.56683
316.18        27.39939
316.63        27.16996
317.08        26.87721
317.53        26.53299
317.99         26.1496
318.44        25.76362
318.89        25.45339
319.35        25.24141
319.80        25.10769
320.25        25.01968
320.70        24.91337
321.16        24.76199
321.61        24.58971
322.06        24.39669
322.51        24.18949
322.97        23.97055
323.42        23.74113
323.87        23.51805
324.32         23.3427
324.78        23.21678
325.23        23.13815
325.68        23.06794
326.13        22.94583
326.59        22.75006
327.04        22.50917
327.49        22.24024
327.94        21.98395
328.39        21.75633
328.85        21.53899
329.30        21.34467
329.75        21.17278
330.20        21.02114
330.66        20.88945
331.11        20.76651
331.56         20.6069
332.01        20.40418
332.46        20.17109
332.92        19.93262
333.37        19.75741
333.82        19.65612
334.27        19.61764
334.72         19.6206
335.17        19.62781
335.63        19.61101
336.08         19.5795
336.53         19.5413
336.98        19.52101
337.43        19.52015
337.88        19.53555
338.34        19.50604
338.79        19.34606
339.24        19.04501
339.69         18.6355
340.14        18.24389
340.59        18.06745
341.05        18.13408
341.50        18.38582
341.95        18.67275
342.40        18.74878
342.85         18.5588
343.30        18.19583
343.75        17.77726
344.20        17.48496
344.66        17.37779
345.11        17.38356
345.56         17.4859
346.01        17.65411
346.46        17.85258
346.91        18.08641
347.36        18.28076
347.81        18.31958
348.26        18.19105
348.72        17.93635
349.17        17.62951
349.62        17.43449
350.07        17.39011
350.52        17.44461
350.97         17.5412
351.42        17.57946
351.87        17.53185
352.32        17.45078
352.77          17.331
353.22        17.16141
353.67        16.95725
354.13        16.71864
354.58        16.52436
355.03         16.5271
355.48        16.74109
355.93        17.12512
356.38         17.5187
356.83        17.64782
357.28        17.45705
357.73        17.04045
358.18         16.5842
358.63        16.36765
359.08        16.44903
359.53        16.73329
359.98        17.09329
360.43        17.31295
360.88        17.31976
361.33        17.18786
361.78        16.97593
362.23        16.76498
362.68        16.58887
363.13        16.42019
363.58        16.26766
364.03        16.15614
364.48        16.08451
364.93         16.0453
365.38        16.02308
365.83        15.98473
366.28        15.91906
366.73        15.84124
367.18        15.72807
367.63        15.54573
368.08        15.30506
368.53        15.02318
368.98        14.77685
369.43         14.6817
369.88        14.74895
370.33        14.93484
370.78        15.14824
371.23        15.22535
371.68        15.11438
372.13         14.8692
372.58         14.5454
373.03        14.22629
373.48        13.94819
373.93        13.69259
374.38        13.48595
374.83        13.37355
375.28        13.35952
375.72        13.43284
376.17        13.54413
376.62        13.61112
377.07        13.60856
377.52        13.55069
377.97        13.45723
378.42         13.3653
378.87        13.28957
379.32        13.22183
379.77        13.15756
380.22        13.09137
380.67        13.02251
381.11        12.95661
381.56        12.90586
382.01         12.8904
382.46        12.91216
382.91        12.96494
383.36        13.01192
383.81         13.0001
384.26        12.91674
384.71        12.76776
385.15        12.60123
385.60         12.5094
386.05        12.50439
386.50        12.56956
386.95        12.62627
387.40         12.5526
387.85        12.34078
388.29        12.03142
388.74        11.76323
389.19        11.68542
389.64        11.81783
390.09         12.0956
390.54        12.40749
390.98         12.5756
391.43        12.55345
391.88        12.40467
392.33        12.20127
392.78        12.04985
393.23        11.97969
393.67        11.93799
394.12        11.91733
394.57        11.91729
395.02        11.91184
395.47        11.83447
395.91        11.72472
396.36        11.69899
396.81        11.77228
397.26        11.88093
397.71        11.97486
398.15        12.01063
398.60        11.99092
399.05        11.88175
399.50        11.74209
399.95        11.73955
400.39        11.84904
400.84        11.84267
401.29        11.70597
401.74         11.6061
402.18        11.54596
402.63        11.41598
403.08         11.2584
403.53        11.18888
403.97        11.21641
404.42        11.30758
404.87        11.39645
405.32          11.378
405.76        11.23211
406.21        11.00346
406.66        10.76829
407.11        10.64784
407.55        10.67491
408.00        10.81217
408.45        10.99833
408.90        11.10843
409.34        11.10938
409.79        11.06021
410.24        10.99424
410.68        10.93347
411.13        10.89447
411.58        10.87528
412.03        10.86122
412.47        10.82629
412.92        10.76517
413.37        10.69088
413.81        10.62509
414.26         10.6049
414.71        10.63233
415.15        10.70544
415.60        10.77826
416.05        10.78931
416.49        10.72388
416.94        10.59595
417.39        10.46863
417.83        10.44347
418.28        10.53742
418.73        10.71569
419.17        10.89318
419.62        10.92673
420.07        10.79519
420.51        10.55013
420.96        10.29037
421.41        10.14734
421.85        10.14872
422.30        10.25089
422.74        10.39918
423.19        10.52197
423.64        10.59192
424.08        10.63729
424.53        10.64447
424.98        10.60912
425.42        10.53969
425.87        10.44117
426.31        10.33651
426.76        10.27821
427.21        10.27109
427.65        10.29875
428.10         10.3594
428.54        10.44396
428.99        10.53989
429.44         10.6649
429.88        10.75472
430.33         10.7161
430.77        10.54771
431.22        10.29423
431.66        10.04801
432.11        9.975524
432.56        10.07041
433.00        10.25963
433.45        10.41797
433.89        10.29746
434.34        9.902884
434.78        9.906181
435.23        10.34067
435.67        10.48286
436.12        10.33142
436.57        10.27112
437.01        10.32653
437.46        10.33925
437.90          10.309
438.35        10.29756
438.79        10.29655
439.24        10.26703
439.68        10.22734
440.13        10.25506
440.57        10.33123
441.02        10.38074
441.46        10.39585
441.91        10.34843
442.35        10.26216
442.80        10.35228
443.24        10.53686
443.69        10.41327
444.13         10.0498
444.58        9.899798
445.02        9.979305
445.47        10.05685
445.91        10.10868
446.36        10.20115
446.80        10.31946
447.24        10.44096
447.69        10.54414
448.13        10.59898
448.58        10.59902
449.02        10.54998
449.47        10.47745
449.91        10.41563
450.36        10.37956
450.80         10.3612
451.25        10.34769
451.69        10.30874
452.13        10.24152
452.58        10.16187
453.02        10.08738
453.47         10.0519
453.91        10.06061
454.36         10.1034
454.80        10.15953
455.24        10.19262
455.69        10.19442
456.13        10.16686
456.58        10.13473
457.02        10.12194
457.46        10.13623
457.91        10.16762
458.35        10.18975
458.79         10.1464
459.24        10.03949
459.68        9.915873
460.13        9.829676
460.57        9.656187
461.01        9.690633
461.46        9.705274
461.90        9.765966
462.34        9.795536
462.79        9.835831
463.23        9.847065
463.68        9.860983
464.12        9.903186
464.56        9.975787
465.01        10.07806
465.45        10.15708
465.89        10.15255
466.34        10.06506
466.78        9.911032
467.22        9.752204
467.67        9.713138
468.11        9.777852
468.55         9.94723
468.99        10.14636
469.44        10.27709
469.88        10.31538
470.32        10.28762
470.77        10.22487
471.21        10.17412
471.65         10.1546
472.10        10.14938
472.54        10.15405
472.98        10.17113
473.42        10.19774
473.87        10.24236
474.31        10.28324
474.75        10.29538
475.20        10.27819
475.64        10.23172
476.08        10.17923
476.52         10.1836
476.97        10.25836
477.41        10.34032
477.85        10.38059
478.29        10.59579
478.74        10.52036
479.18        10.51566
479.62        10.48339
480.06         10.5476
480.50        10.72033
480.95        10.76191
481.39        10.99651
481.83        11.05463
482.27        11.03982
482.72        10.97812
483.16        10.90234
483.60        10.88639
484.04        10.93686
484.48        10.99757
484.93        11.12237
485.37        11.34746
485.81        11.53183
486.25        11.88479
486.69        11.22029
487.14        10.99664
487.58        11.57882
488.02        11.78401
488.46        11.94687
488.90        11.89524
489.34        12.00278
489.79        11.87671
490.23        12.11718
490.67        12.31291
491.11        12.54752
491.55        12.59256
491.99        12.47678
492.43        12.48148
492.88        12.61812
493.32        12.69799
493.76        12.72795
494.20        12.82729
494.64        13.00484
495.08        13.21332
495.52        13.41171
495.96        13.58616
496.41        13.70991
496.85        13.67618
497.29        13.56684
497.73        13.69158
498.17        14.02993
498.61        14.23641
499.05        14.27515
499.49        14.36396
499.93        14.49727
500.37        14.53467
500.82        14.50557
501.26        14.52735
501.70        14.61806
502.14        14.74477
502.58         14.8789
503.02        14.97612
503.46        15.02777
503.90        15.05445
504.34        15.08508
504.78        15.16238
505.22        15.29458
505.66        15.46144
506.10        15.63549
506.54         15.7734
506.98        15.85916
507.42        15.90581
507.86        15.92014
508.30        15.91267
508.74        15.89402
509.18        15.86608
509.62        15.84474
510.06        15.85647
510.50        15.90743
510.94         15.9902
511.38        16.09297
511.82          16.194
512.26        16.28078
512.70        16.35299
513.14        16.40132
513.58         16.4139
514.02         16.3916
514.46        16.34068
514.90         16.2739
515.34        16.21355
515.78        16.16982
516.22        16.14026
516.66        16.13044
517.10        16.14574
517.54        16.18332
517.98         16.2407
518.42        16.29929
518.86         16.3277
519.30        16.31846
519.74        16.27887
520.18        16.22626
520.62        16.19039
521.06        16.17863
521.50        16.18086
521.93        16.18847
522.37        16.18288
522.81        16.16089
523.25        16.13104
523.69         16.0942
524.13        16.04985
524.57        16.00176
525.01        15.95109
525.45        15.90843
525.89         15.8911
526.32        15.90061
526.76        15.92769
527.20        15.95988
527.64        15.97608
528.08        15.96914
528.52        15.94583
528.96         15.9062
529.40        15.85138
529.83        15.78303
530.27        15.70476
530.71        15.62896
531.15           15.58
531.59        15.56075
532.03        15.56306
532.46        15.56523
532.90        15.53359
533.34        15.46391
533.78        15.35932
534.22        15.23993
534.66        15.16147
535.09        15.11828
535.53        15.04901
535.97         14.9662
536.41        14.94378
536.85        14.98491
537.28        15.05346
537.72        15.12687
538.16        15.18497
538.60        15.21847
539.04        15.23005
539.47        15.23766
539.91         15.2807
540.35        15.36164
540.79        15.47501
541.22        15.59725
541.66        15.66632
542.10        15.71562
542.54        15.72918
542.97         15.7426
543.41        15.80266
543.85        15.91512
544.29        16.06335
544.72        16.22748
545.16        16.38433
545.60        16.52241
546.04        16.64794
546.47        16.75967
546.91        16.85881
547.35        16.94876
547.79        17.02672
548.22        17.09187
548.66        17.18038
549.10        17.29917
549.53        17.36263
549.97        17.53111
550.41        17.70011
550.84        17.91012
551.28        18.15488
551.72        18.40513
552.15        18.59503
552.59        18.72112
553.03        18.82335
553.46         18.9122
553.90        19.01778
554.34        19.14985
554.77        19.26971
555.21        19.35603
555.65        19.58572
556.08        19.58425
556.52        19.66463
556.96         19.7229
557.39        19.78948
557.83        19.87411
558.27        19.94368
558.70        19.99738
559.14        20.13183
559.57        20.16585
560.01        20.27722
560.45         20.3828
560.88        20.42011
561.32        20.42998
561.75         20.4293
562.19        20.46111
562.63        20.68058
563.06        20.99557
563.50        20.97256
563.93        20.67866
564.37        20.62546
564.80        20.82671
565.24        21.01149
565.68        21.13796
566.11        21.26548
566.55        21.38807
566.98        21.48214
567.42        21.57109
567.85        21.67664
568.29        21.81384
568.72        21.95354
569.16        22.09377
569.60        22.22332
570.03        22.33305
570.47        22.36701
570.90        22.50111
571.34        22.54982
571.77        22.66768
572.21        22.77762
572.64        22.91627
573.08        22.99704
573.51         23.5015
573.95        23.47758
574.38        23.33583
574.82        23.66403
