SpectraSmart Spectrum 2.9.0.0
--------- Device Information -----------
Spectrum Name :  反射率_0
Saving Time :  2024/05/01 17:06:20
Spectro-Module Model Name : SE2030-DUVN
Spectro-Module Serial Number : OS361AC55029948
Wavelength Start : 200
Wavelength End : 1025
Wavelength Unit : Wavelength(nm)
Spectrum Unit : Reflectance(%)
-----------Spectrum Setting ------------
Integration Time : 20ms
Average : 10
Boxcar : 0
Background removal :  enabled
linearity correction :  enabled
SC :  disabled
Intensity correction :  disabled
DWT denoise :  enabled
savitzky-golay :  disabled
FFT :  disabled
Running average :  disabled
Kalman :  disabled
High pass :  disabled
---------------BEGIN--------------------
Wavelength(nm)             Reflectance(%)
200.29               0
200.75        147.9291
201.21        656.2622
201.67       -267.9169
202.13       -91.27048
202.58       -33.74922
203.04       0.8033465
203.50        22.29529
203.96        31.84948
204.42        32.10723
204.88        17.30393
205.34       -416.7197
205.80        100.2624
206.26        61.19666
206.72        21.84297
207.18       -147.3583
207.64        338.9452
208.10        170.8974
208.55        131.3655
209.01        110.9484
209.47        96.53353
209.93        84.34876
210.39        71.12254
210.85        59.42632
211.31           54.18
211.77        63.83511
212.23       -76.38344
212.69        6.265204
213.14        20.08009
213.60        50.71273
214.06       -251.0819
214.52       -37.90099
214.98        -18.7382
215.44       -4.144021
215.90        29.62412
216.36        521.7289
216.81       -243.6024
217.27       -316.8332
217.73        603.1605
218.19        107.2867
218.65        68.39574
219.11        75.56294
219.57        139.2892
220.02         438.145
220.48         261.351
220.94        101.8578
221.40         60.0915
221.86        47.64116
222.32        48.25945
222.77         57.3394
223.23        75.23432
223.69        99.47377
224.15        110.3409
224.61        100.4816
225.06        83.46172
225.52        72.16852
225.98        71.34601
226.44        79.93947
226.90        97.37792
227.36        120.1752
227.81        130.7347
228.27        122.3419
228.73        106.4955
229.19        93.67905
229.65        89.53937
230.10        93.06545
230.56         102.353
231.02         114.715
231.48        121.5955
231.93         118.923
232.39        111.7607
232.85        103.9773
233.31        98.88643
233.77        96.68812
234.22        95.75034
234.68        95.97905
235.14        97.40455
235.60        100.0889
236.05         105.151
236.51        112.0003
236.97        117.2521
237.43        117.3634
237.88        111.5359
238.34        103.1817
238.80        98.75479
239.26        99.94511
239.71        108.0252
240.17        120.8662
240.63        124.8133
241.08        109.1486
241.54        81.61243
242.00        58.40506
242.46         50.1385
242.91        57.46354
243.37         81.6644
243.83        127.4793
244.28         164.856
244.74        157.6344
245.20         131.445
245.66         108.096
246.11        92.68633
246.57        81.00751
247.03        66.34737
247.48        43.76793
247.94        14.46844
248.40       -10.03826
248.85       -22.46519
249.31       -19.34774
249.77       -6.668844
250.22        7.962889
250.68        21.41207
251.14        31.52918
251.59        38.01444
252.05         42.7568
252.51        47.77213
252.96         57.1518
253.42        81.46696
253.88        103.9895
254.33        100.8306
254.79        92.26456
255.25        86.40025
255.70        82.22734
256.16        79.51385
256.62            77.7
257.07        76.56845
257.53          76.463
257.99        76.76139
258.44        77.00625
258.90        77.42633
259.35        77.60572
259.81        77.95271
260.27        78.26785
260.72        78.36925
261.18        78.55106
261.63        78.43797
262.09        78.39592
262.55        78.31271
263.00        78.03947
263.46         77.7881
263.91        77.27766
264.37         76.6461
264.83        75.82735
265.28         74.8529
265.74        73.92184
266.19        72.91023
266.65        71.98537
267.11        71.08061
267.56        70.31344
268.02        69.98953
268.47        70.07212
268.93        70.43473
269.38        70.81705
269.84        70.75511
270.30        70.15131
270.75        69.11689
271.21        67.88108
271.66        66.65225
272.12        65.58547
272.57         64.5352
273.03        63.57171
273.48        62.69791
273.94         61.9641
274.39        61.34381
274.85        60.76677
275.31        59.98384
275.76        58.94694
276.22        57.80345
276.67        56.66562
277.13         55.8922
277.58        55.40376
278.04        55.14013
278.49         54.8071
278.95        54.14936
279.40        53.06316
279.86        51.76801
280.31        50.38926
280.77        49.26068
281.22        48.36203
281.68        47.68392
282.13        47.05723
282.59        46.39679
283.04        45.61979
283.50        44.83623
283.95        44.07429
284.41        43.47166
284.86        43.02189
285.32        42.69621
285.77        42.42273
286.22        42.17647
286.68        41.92771
287.13         41.6576
287.59        41.32669
288.04        40.82726
288.50        40.20574
288.95         39.4619
289.41        38.76005
289.86        38.21506
290.32         37.8828
290.77        37.69607
291.22        37.55965
291.68        37.31049
292.13        36.90713
292.59        36.43298
293.04        35.96534
293.50        35.68802
293.95        35.61383
294.40        35.68381
294.86        35.81638
295.31        35.89599
295.77        35.88386
296.22        35.81589
296.68        35.70599
297.13        35.54425
297.58        35.36194
298.04        35.18167
298.49         35.0442
298.95        35.06251
299.40        35.22999
299.85        35.50125
300.31         35.8358
300.76        36.15858
301.21        36.43886
301.67        36.69874
302.12        36.85822
302.58        36.83462
303.03        36.61634
303.48        36.26754
303.94        35.95371
304.39        35.84406
304.84        35.99068
305.30        36.32219
305.75        36.71296
306.20        36.98807
306.66        37.09978
307.11        37.07645
307.57        36.97515
308.02        36.82368
308.47        36.65944
308.93        36.47801
309.38        36.27118
309.83         36.0843
310.29        35.93594
310.74        35.82013
311.19        35.73357
311.65         35.6504
312.10        35.55607
312.55        35.45614
313.00        35.36874
313.46        35.32252
313.91        35.31073
314.36        35.31643
314.82        35.29599
315.27        35.19617
315.72        35.00186
316.18        34.74149
316.63        34.44577
317.08        34.16879
317.53        33.92782
317.99        33.71597
318.44        33.52084
318.89        33.33412
319.35         33.1555
319.80        32.99166
320.25        32.85209
320.70         32.7439
321.16        32.66085
321.61        32.60557
322.06        32.55809
322.51        32.49396
322.97        32.39891
323.42         32.2857
323.87        32.16666
324.32        32.07507
324.78        32.01233
325.23        31.98051
325.68        31.94258
326.13        31.84815
326.59        31.67791
327.04        31.45854
327.49         31.2229
327.94        31.03817
328.39        30.92186
328.85        30.84814
329.30           30.79
329.75        30.66224
330.20        30.44751
330.66        30.16812
331.11        29.88916
331.56        29.68239
332.01          29.574
332.46         29.5422
332.92        29.55051
333.37        29.57159
333.82        29.57982
334.27        29.59382
334.72         29.6151
335.17        29.64762
335.63        29.67945
336.08        29.70642
336.53        29.73876
336.98        29.81556
337.43        29.93855
337.88        30.10559
338.34        30.23374
338.79        30.20303
339.24        29.99081
339.69        29.64215
340.14        29.30334
340.59        29.20516
341.05        29.38715
341.50        29.78275
341.95        30.23657
342.40        30.49382
342.85         30.4888
343.30        30.30884
343.75        30.06369
344.20        29.92489
344.66        29.94594
345.11        30.05662
345.56        30.22809
346.01        30.41275
346.46        30.57597
346.91        30.73047
347.36        30.83785
347.81        30.83473
348.26        30.72105
348.72        30.53054
349.17        30.29496
349.62        30.11102
350.07        30.00368
350.52        29.93974
350.97         29.9177
351.42        29.92627
351.87        29.95484
352.32        30.02467
352.77        30.06023
353.22         29.9453
353.67        29.67305
354.13        29.27889
354.58        28.90428
355.03        28.80823
355.48        29.02971
355.93        29.50013
356.38        29.99523
356.83        30.13531
357.28        29.84337
357.73        29.25226
358.18         28.6236
358.63        28.34666
359.08        28.49593
359.53        28.93178
359.98        29.45576
360.43        29.73361
360.88        29.66166
361.33        29.36198
361.78        28.93984
362.23        28.54154
362.68        28.22515
363.13        27.94185
363.58        27.71211
364.03        27.58236
364.48        27.54604
364.93        27.58756
365.38        27.64545
365.83        27.61203
366.28        27.45788
366.73        27.21368
367.18        26.89396
367.63        26.53471
368.08        26.17051
368.53        25.80343
368.98        25.48581
369.43        25.29095
369.88        25.21996
370.33        25.24623
370.78        25.30513
371.23         25.2783
371.68        25.12936
372.13        24.89679
372.58        24.61033
373.03        24.31473
373.48        24.03281
373.93        23.75298
374.38        23.51233
374.83        23.37562
375.28        23.35043
375.72        23.41359
376.17        23.50608
376.62        23.52623
377.07        23.44677
377.52        23.29198
377.97        23.09622
378.42        22.91798
378.87        22.77884
379.32        22.66553
379.77        22.56729
380.22        22.46737
380.67        22.36238
381.11        22.26435
381.56        22.18513
382.01        22.14636
382.46        22.14939
382.91        22.18112
383.36         22.2111
383.81        22.19766
384.26        22.12619
384.71        21.99951
385.15        21.83846
385.60        21.69774
386.05        21.58521
386.50        21.49954
386.95        21.40452
387.40        21.24321
387.85        21.02013
388.29        20.75014
388.74        20.53745
389.19        20.46429
389.64         20.5353
390.09        20.70082
390.54        20.88607
390.98        20.96887
391.43        20.92386
391.88        20.79695
392.33        20.61676
392.78        20.43272
393.23         20.2689
393.67        20.08024
394.12        19.92364
394.57        19.90226
395.02         19.9913
395.47        20.04151
395.91        20.03695
396.36        20.05787
396.81        20.10319
397.26        20.11072
397.71        20.07928
398.15        20.05998
398.60         20.0786
399.05        20.02961
399.50        19.94904
399.95        20.03762
400.39        20.23355
400.84        20.17495
401.29        19.86625
401.74        19.63822
402.18        19.51869
402.63        19.31116
403.08        19.07793
403.53        19.00039
403.97         19.0869
404.42        19.28261
404.87        19.49328
405.32        19.56894
405.76        19.47065
406.21        19.25334
406.66         18.9918
407.11        18.80719
407.55        18.74017
408.00        18.75576
408.45        18.81404
408.90         18.8183
409.34        18.75405
409.79        18.69808
410.24        18.66549
410.68        18.62973
411.13        18.59877
411.58        18.58713
412.03        18.58472
412.47        18.56946
412.92        18.53357
413.37        18.48603
413.81        18.44085
414.26        18.43415
414.71        18.46373
415.15        18.52678
415.60        18.58177
416.05        18.57918
416.49        18.50934
416.94        18.38964
417.39        18.26653
417.83        18.21231
418.28        18.24415
418.73        18.33775
419.17        18.45329
419.62        18.52001
420.07        18.52305
420.51        18.48149
420.96        18.43189
421.41        18.40497
421.85        18.40326
422.30        18.41899
422.74        18.44373
423.19        18.48531
423.64        18.53564
424.08        18.60576
424.53        18.64886
424.98        18.61279
425.42        18.49507
425.87        18.31844
426.31        18.14065
426.76        18.06129
427.21        18.09384
427.65        18.20399
428.10        18.35541
428.54        18.48185
428.99         18.5632
429.44        18.64439
429.88        18.67776
430.33        18.59887
430.77        18.41564
431.22        18.17734
431.66        17.96475
432.11        17.94173
432.56        18.06811
433.00        18.19978
433.45        18.21952
433.89         18.0052
434.34        17.54407
434.78        17.70253
435.23        18.51741
435.67        18.84527
436.12        18.66187
436.57        18.55018
437.01        18.57077
437.46        18.52909
437.90         18.4409
438.35        18.38568
438.79        18.35193
439.24        18.27616
439.68         18.1904
440.13        18.24246
440.57        18.38334
441.02        18.45295
441.46        18.43641
441.91        18.29686
442.35        18.10356
442.80        18.27223
443.24        18.66347
443.69        18.54349
444.13        18.00283
444.58        17.80807
445.02          17.979
445.47        18.11426
445.91        18.16964
446.36        18.26537
446.80        18.38212
447.24        18.48116
447.69        18.56228
448.13        18.62671
448.58        18.67349
449.02        18.69897
449.47        18.69815
449.91        18.64955
450.36        18.56277
450.80        18.44785
451.25        18.33354
451.69        18.24986
452.13        18.20788
452.58         18.2012
453.02        18.21364
453.47        18.23003
453.91        18.23928
454.36        18.25078
454.80        18.25436
455.24        18.23233
455.69        18.18861
456.13        18.11649
456.58        18.05309
457.02        18.03202
457.46        18.06278
457.91        18.13304
458.35         18.2031
458.79        18.18218
459.24        18.06759
459.68        17.93815
460.13        17.86645
460.57        17.60102
461.01        17.66915
461.46        17.66422
461.90        17.72526
462.34        17.75351
462.79        17.83487
463.23        17.89149
463.68        17.94936
464.12        18.00632
464.56        18.05909
465.01        18.12898
465.45          18.166
465.89        18.12964
466.34        18.02547
466.78        17.86279
467.22        17.69918
467.67        17.66633
468.11        17.71524
468.55        17.87778
468.99        18.07266
469.44        18.20683
469.88        18.25654
470.32        18.24257
470.77        18.19483
471.21        18.16184
471.65        18.15944
472.10        18.17374
472.54        18.18694
472.98        18.18445
473.42        18.16428
473.87        18.14431
474.31        18.12482
474.75        18.12191
475.20        18.14321
475.64        18.17063
476.08        18.19464
476.52        18.24787
476.97        18.33461
477.41        18.35707
477.85        18.27851
478.29        18.55759
478.74        18.39468
479.18        18.40396
479.62        18.35988
480.06        18.39421
480.50        18.51855
480.95        18.36282
481.39         18.5468
481.83        18.53448
482.27        18.52222
482.72        18.52501
483.16        18.54005
483.60        18.59457
484.04        18.69042
484.48        18.68362
484.93        18.69326
485.37        19.00735
485.81         19.4988
486.25        19.56074
486.69         19.2718
487.14        18.65469
487.58         18.7514
488.02        19.44061
488.46         19.1992
488.90        19.41022
489.34        19.39224
489.79        19.18631
490.23        19.57188
490.67        19.79165
491.11        20.02343
491.55        19.97471
491.99        19.71775
492.43        19.64924
492.88        19.79783
493.32        19.92423
493.76        19.99417
494.20        20.08964
494.64        20.20782
495.08        20.30429
495.52        20.38513
495.96        20.52538
496.41        20.70338
496.85        20.76217
497.29        20.72968
497.73        20.84628
498.17        21.08955
498.61        21.17809
499.05         21.1195
499.49        21.15099
499.93        21.28004
500.37        21.37237
500.82        21.43712
501.26        21.54218
501.70        21.68793
502.14        21.85795
502.58         22.0064
503.02         22.0619
503.46        22.01666
503.90        21.89542
504.34        21.77393
504.78        21.77408
505.22        21.92298
505.66        22.18473
506.10        22.47451
506.54        22.65041
506.98        22.67417
507.42        22.58845
507.86        22.46479
508.30        22.41494
508.74         22.4696
509.18        22.59466
509.62        22.74258
510.06         22.8366
510.50        22.85516
510.94        22.82619
511.38        22.78807
511.82        22.79844
512.26        22.86974
512.70        22.97639
513.14        23.08548
513.58        23.14876
514.02        23.15354
514.46        23.11902
514.90        23.06284
515.34        23.01244
515.78           22.98
516.22        22.95769
516.66        22.94951
517.10        22.96146
517.54        22.99183
517.98        23.04059
518.42         23.0924
518.86        23.12006
519.30        23.11679
519.74        23.08743
520.18        23.04794
520.62        23.02571
521.06        23.02667
521.50        23.04219
521.93        23.05897
522.37        23.04986
522.81        23.01285
523.25        22.96051
523.69        22.90526
524.13        22.86509
524.57        22.84571
525.01        22.83879
525.45        22.84433
525.89        22.86341
526.32        22.89102
526.76        22.92325
527.20        22.94392
527.64        22.92683
528.08        22.86939
528.52        22.78433
528.96         22.6885
529.40        22.60898
529.83        22.55158
530.27         22.5125
530.71        22.49285
531.15        22.49878
531.59        22.52606
532.03         22.5722
532.46        22.60707
532.90         22.5874
533.34        22.50899
533.78        22.36941
534.22        22.21199
534.66        22.14149
535.09        22.15016
535.53        22.14047
535.97        22.09761
536.41        22.07754
536.85        22.07627
537.28        22.05727
537.72        22.02993
538.16         22.0313
538.60         22.0648
539.04        22.11576
539.47        22.17541
539.91        22.24537
540.35        22.31657
540.79        22.39942
541.22         22.4866
541.66        22.53204
542.10        22.59211
542.54        22.62453
542.97        22.65926
543.41        22.73064
543.85        22.83982
544.29        22.97848
544.72        23.12477
545.16        23.25561
545.60        23.36011
546.04        23.44238
546.47        23.51729
546.91        23.61334
547.35        23.73711
547.79        23.87515
548.22        23.99168
548.66        24.08507
549.10        24.15334
549.53         24.0909
549.97          24.153
550.41        24.25148
550.84        24.45859
551.28        24.75125
551.72        25.06021
552.15        25.24784
552.59        25.30103
553.03        25.29369
553.46        25.27193
553.90        25.32096
554.34        25.46005
554.77        25.62505
555.21        25.77452
555.65        26.05803
556.08        25.95599
556.52         26.0275
556.96        26.17682
557.39        25.89788
557.83        26.18928
558.27        26.21033
558.70        26.24992
559.14        26.41273
559.57        26.46305
560.01        26.62437
560.45        26.75739
560.88         26.7578
561.32        26.67664
561.75        26.54904
562.19         26.4654
562.63        26.67606
563.06        27.07217
563.50        27.07861
563.93        26.75309
564.37        26.71199
564.80        26.96004
565.24        27.15634
565.68        27.26041
566.11        27.36983
566.55        27.48403
566.98        27.56741
567.42        27.64106
567.85        27.71425
568.29        27.79817
568.72        27.88838
569.16        28.01236
569.60        28.11793
570.03        28.18224
570.47        28.44831
570.90        28.53681
571.34         28.6367
571.77        28.73334
572.21        28.79325
572.64        28.90423
573.08        28.92383
573.51        29.40206
573.95        29.63439
574.38        29.21055
574.82        29.39144
