SpectraSmart Spectrum 2.9.0.0
--------- Device Information -----------
Spectrum Name :  反射率_0
Saving Time :  2024/05/01 17:23:54
Spectro-Module Model Name : SE2030-DUVN
Spectro-Module Serial Number : OS361AC55029948
Wavelength Start : 200
Wavelength End : 1025
Wavelength Unit : Wavelength(nm)
Spectrum Unit : Reflectance(%)
-----------Spectrum Setting ------------
Integration Time : 20ms
Average : 10
Boxcar : 0
Background removal :  enabled
linearity correction :  enabled
SC :  disabled
Intensity correction :  disabled
DWT denoise :  enabled
savitzky-golay :  disabled
FFT :  disabled
Running average :  disabled
Kalman :  disabled
High pass :  disabled
---------------BEGIN--------------------
Wavelength(nm)             Reflectance(%)
200.29               0
200.75        140.0087
201.21        736.3503
201.67       -349.9093
202.13       -141.7797
202.58       -73.30733
203.04       -33.26563
203.50       -8.429913
203.96        3.807474
204.42        7.316364
204.88       0.8246939
205.34       -258.3737
205.80        57.00088
206.26           40.03
206.72        33.84642
207.18        23.99916
207.64        55.19101
208.10        47.38699
208.55        48.13436
209.01        47.88705
209.47        45.32173
209.93        40.39587
210.39        32.91766
210.85        23.99994
211.31        13.57789
211.77       -11.00325
212.23        156.9248
212.69        57.98876
213.14        65.65953
213.60        128.7342
214.06       -592.9767
214.52       -94.28931
214.98       -61.60362
215.44       -54.61217
215.90       -61.29143
216.36       -228.5254
216.81        21.80279
217.27        7.266732
217.73       -53.39713
218.19       -28.86358
218.65       -33.37198
219.11       -47.16874
219.57       -90.14306
220.02       -249.6968
220.48       -109.4721
220.94       -25.45205
221.40       -5.292718
221.86        2.698453
222.32        8.492563
222.77        15.30062
223.23        25.02772
223.69        37.10515
224.15        42.55392
224.61        38.10458
225.06        30.22446
225.52        24.99105
225.98        24.86315
226.44        29.39203
226.90        38.22579
227.36        50.05882
227.81        56.77849
228.27        54.41353
228.73        47.97671
229.19        42.08599
229.65        39.09628
230.10        38.60529
230.56        39.90546
231.02        42.21346
231.48        43.56264
231.93        43.06849
232.39        41.80687
232.85        41.08813
233.31        42.15776
233.77        44.71715
234.22        47.99634
234.68        50.98801
235.14        52.65955
235.60        52.86711
236.05        51.78301
236.51        49.64176
236.97        48.27668
237.43        49.06866
237.88        51.73758
238.34        54.24833
238.80        54.11789
239.26         50.2256
239.71        41.85968
240.17        27.62467
240.63        11.90979
241.08         3.81751
241.54        5.504031
242.00        12.27082
242.46        18.85505
242.91        25.40987
243.37        33.87651
243.83        48.47245
244.28        68.25171
244.74        78.27136
245.20        77.87403
245.66        72.71183
246.11        64.93232
246.57        53.47176
247.03        34.64267
247.48        3.426609
247.94       -33.96378
248.40       -59.13882
248.85       -67.81304
249.31       -56.49801
249.77        -31.9136
250.22       -5.952175
250.68        16.66584
251.14        32.05754
251.59        38.49765
252.05        37.12341
252.51        25.03125
252.96        -9.36692
253.42        -58.8292
253.88       -50.68077
254.33       -0.854405
254.79        28.51364
255.25        37.87728
255.70         38.7018
256.16        37.35238
256.62        36.60663
257.07        38.14164
257.53        41.22811
257.99        44.36333
258.44        46.48782
258.90        47.08381
259.35        46.20425
259.81        44.69131
260.27        43.06567
260.72        42.06618
261.18        41.97158
261.63        42.17698
262.09        42.47477
262.55        42.39931
263.00        41.84976
263.46        41.10691
263.91        40.21922
264.37         39.4475
264.83        38.79735
265.28         38.2338
265.74        37.70648
266.19        36.95187
266.65        36.05879
267.11        35.04481
267.56        34.21493
268.02        34.12008
268.47        34.76627
268.93        35.91325
269.38        37.05238
269.84         37.3075
270.30        36.51702
270.75        34.97338
271.21        33.16594
271.66        31.72764
272.12        30.90398
272.57        30.44012
273.03        30.25429
273.48        30.16802
273.94        30.09946
274.39        30.08676
274.85        30.01782
275.31        29.65918
275.76        29.00116
276.22        28.16533
276.67        27.29523
277.13        26.69865
277.58        26.36616
278.04        26.21983
278.49        26.13079
278.95        26.00521
279.40        25.75454
279.86        25.46586
280.31         25.0682
280.77        24.53625
281.22        23.86398
281.68        23.13552
282.13        22.42943
282.59        21.93292
283.04        21.64443
283.50        21.53284
283.95        21.51711
284.41        21.51263
284.86        21.46561
285.32        21.40579
285.77        21.32247
286.22        21.22645
286.68        21.12721
287.13        21.00461
287.59        20.86249
288.04         20.6764
288.50        20.47827
288.95         20.2465
289.41        20.06049
289.86        19.96684
290.32        19.98137
290.77        20.07559
291.22        20.16269
291.68        20.10467
292.13        19.88447
292.59        19.57867
293.04        19.28334
293.50        19.19534
293.95        19.34285
294.40        19.67341
294.86        20.10604
295.31        20.52393
295.77        20.87476
296.22        21.18506
296.68        21.45855
297.13        21.69325
297.58        21.90642
298.04        22.10999
298.49        22.31221
298.95        22.56604
299.40        22.86591
299.85        23.19359
300.31        23.55714
300.76        23.96966
301.21        24.42009
301.67        24.91038
302.12        25.34438
302.58        25.59527
303.03        25.63509
303.48          25.531
303.94        25.43507
304.39        25.52122
304.84        25.84031
305.30        26.32432
305.75        26.85931
306.20         27.2801
306.66        27.53921
307.11        27.66683
307.57        27.72274
308.02        27.75489
308.47        27.79431
308.93        27.82673
309.38        27.82085
309.83        27.77834
310.29        27.70806
310.74         27.6207
311.19        27.53646
311.65        27.46875
312.10        27.41797
312.55        27.37897
313.00        27.35878
313.46        27.36795
313.91        27.39457
314.36        27.42878
314.82        27.43406
315.27        27.36459
315.72        27.20854
316.18        26.98977
316.63        26.73407
317.08        26.48314
317.53        26.25254
317.99        26.03778
318.44        25.83935
318.89        25.67347
319.35        25.54092
319.80        25.43591
320.25        25.34197
320.70        25.22444
321.16        25.06999
321.61        24.89652
322.06        24.70835
322.51        24.51913
322.97        24.33378
323.42        24.15709
323.87        24.00288
324.32        23.90334
324.78        23.85382
325.23        23.84832
325.68        23.84494
326.13        23.78181
326.59        23.63514
327.04         23.4333
327.49         23.1871
327.94        22.92828
328.39        22.67455
328.85        22.41357
329.30        22.17732
329.75        21.99507
330.20        21.87375
330.66        21.80609
331.11        21.76719
331.56        21.68488
332.01        21.54311
332.46        21.36145
332.92        21.16744
333.37        21.03679
333.82        20.98317
334.27        20.99088
334.72        21.04342
335.17        21.11301
335.63        21.17153
336.08        21.22686
336.53        21.27478
336.98        21.32125
337.43        21.36399
337.88        21.40428
338.34        21.39462
338.79        21.27336
339.24        21.03663
339.69        20.71384
340.14        20.41577
340.59        20.31459
341.05        20.43337
341.50        20.72024
341.95         21.0483
342.40        21.20844
342.85        21.14848
343.30        20.94421
343.75        20.67749
344.20        20.47694
344.66        20.39017
345.11        20.36336
345.56         20.4088
346.01        20.54321
346.46        20.74662
346.91        21.01012
347.36         21.2465
347.81        21.32107
348.26        21.21347
348.72        20.96949
349.17        20.66369
349.62        20.45915
350.07        20.39655
350.52        20.42797
350.97        20.49106
351.42        20.47886
351.87        20.36672
352.32        20.20845
352.77        20.02794
353.22        19.85732
353.67        19.71375
354.13        19.58308
354.58        19.49158
355.03        19.51325
355.48        19.64965
355.93          19.886
356.38        20.11853
356.83        20.16993
357.28         20.0094
357.73        19.69676
358.18        19.37172
358.63        19.24579
359.08        19.35676
359.53        19.62946
359.98        19.95094
360.43        20.12822
360.88        20.10088
361.33        19.93707
361.78        19.69367
362.23        19.45137
362.68        19.24327
363.13        19.04194
363.58        18.86695
364.03         18.7574
364.48        18.71246
364.93        18.72139
365.38        18.73839
365.83        18.68395
366.28        18.54058
366.73        18.33587
367.18        18.09435
367.63        17.86191
368.08        17.66495
368.53        17.49418
368.98         17.3694
369.43        17.31954
369.88        17.33663
370.33        17.40326
370.78        17.47497
371.23        17.47136
371.68        17.36895
372.13        17.19692
372.58        16.97456
373.03        16.73055
373.48        16.48603
373.93        16.23932
374.38        16.03776
374.83        15.95891
375.28        16.01195
375.72        16.16704
376.17        16.35225
376.62        16.45379
377.07        16.43914
377.52        16.33414
377.97        16.17482
378.42        16.02281
378.87        15.90185
379.32        15.79933
379.77        15.70439
380.22        15.60066
380.67        15.48582
381.11        15.37172
381.56        15.27868
382.01        15.23955
382.46        15.25776
382.91        15.31954
383.36        15.37941
383.81        15.37157
384.26        15.27972
384.71        15.11604
385.15        14.92751
385.60        14.80581
386.05        14.76646
386.50        14.79353
386.95        14.82295
387.40        14.75585
387.85         14.5835
388.29        14.33191
388.74        14.11932
389.19        14.06188
389.64        14.17165
390.09        14.39386
390.54        14.62892
390.98        14.71723
391.43        14.62785
391.88        14.42782
392.33        14.18953
392.78         14.0203
393.23        13.94723
393.67        13.90733
394.12        13.90671
394.57        13.96763
395.02        14.05755
395.47        14.08828
395.91        14.05448
396.36        14.01796
396.81        13.98823
397.26        13.92144
397.71        13.83466
398.15        13.79097
398.60        13.81199
399.05        13.81572
399.50        13.80789
399.95        13.90025
400.39        14.04163
400.84        13.98422
401.29        13.73829
401.74        13.54728
402.18        13.43461
402.63        13.26391
403.08        13.06849
403.53        12.95861
403.97         12.9417
404.42         12.9884
404.87        13.05755
405.32        13.07992
405.76        13.03376
406.21        12.94555
406.66        12.84096
407.11         12.7631
407.55        12.72902
408.00        12.72542
408.45        12.73936
408.90        12.73206
409.34        12.70148
409.79        12.68534
410.24        12.68876
410.68        12.68689
411.13        12.68189
411.58        12.68965
412.03         12.6936
412.47        12.66051
412.92        12.58593
413.37        12.48153
413.81        12.38307
414.26        12.35451
414.71        12.40067
415.15        12.51105
415.60        12.62541
416.05        12.65696
416.49        12.58409
416.94        12.43259
417.39        12.26908
417.83        12.19949
418.28        12.24813
418.73        12.38054
419.17        12.53137
419.62        12.58906
420.07        12.53286
420.51        12.39846
420.96        12.25363
421.41        12.18075
421.85        12.19382
422.30        12.26386
422.74         12.3517
423.19        12.41272
423.64        12.42785
424.08        12.41871
424.53        12.37121
424.98        12.28282
425.42        12.16684
425.87        12.03798
426.31        11.91795
426.76         11.8517
427.21        11.84289
427.65         11.8728
428.10        11.95358
428.54        12.09856
428.99        12.29052
429.44        12.53205
429.88        12.72106
430.33         12.7148
430.77         12.5074
431.22         12.1662
431.66         11.8173
432.11        11.68067
432.56        11.76183
433.00        11.97211
433.45        12.17025
433.89        12.07073
434.34        11.66976
434.78          11.749
435.23        12.34562
435.67        12.58408
436.12        12.45047
436.57        12.40964
437.01        12.48064
437.46        12.45557
437.90        12.33691
438.35        12.20741
438.79        12.09197
439.24        11.99525
439.68        11.94864
440.13        12.03231
440.57        12.18999
441.02        12.27423
441.46         12.2624
441.91        12.14214
442.35        11.97798
442.80        12.06962
443.24        12.33079
443.69        12.27291
444.13        11.93919
444.58         11.8164
445.02         11.9131
445.47        11.96607
445.91        11.97348
446.36         12.0553
446.80        12.20391
447.24        12.38191
447.69        12.53868
448.13        12.59835
448.58        12.54876
449.02        12.41421
449.47        12.25898
449.91        12.17499
450.36        12.18883
450.80         12.2698
451.25        12.37073
451.69        12.40667
452.13        12.35933
452.58        12.26165
453.02        12.14726
453.47        12.07687
453.91        12.06501
454.36        12.09266
454.80        12.13858
455.24        12.16725
455.69        12.17033
456.13        12.15292
456.58        12.13493
457.02        12.12757
457.46        12.13821
457.91        12.16038
458.35        12.17751
458.79        12.14735
459.24        12.07248
459.68        11.99583
460.13        11.96421
460.57        11.80092
461.01        11.85864
461.46        11.86967
461.90        11.91773
462.34        11.91671
462.79        11.92404
463.23        11.89095
463.68        11.86873
464.12        11.91001
464.56        12.01872
465.01        12.18615
465.45        12.33002
465.89        12.35337
466.34         12.2508
466.78         12.0495
467.22        11.83046
467.67        11.75601
468.11        11.81461
468.55        12.00588
468.99        12.23918
469.44         12.3962
469.88        12.44544
470.32        12.41554
470.77        12.34943
471.21        12.31332
471.65        12.32791
472.10        12.37102
472.54        12.41023
472.98        12.40687
473.42        12.35648
473.87        12.28684
474.31        12.21997
474.75        12.19899
475.20        12.23591
475.64        12.30521
476.08        12.38786
476.52        12.48666
476.97         12.5969
477.41        12.65909
477.85        12.64234
478.29        12.85632
478.74        12.74917
479.18        12.74627
479.62         12.7089
480.06        12.75853
480.50         12.9063
480.95        12.87943
481.39        13.09032
481.83        13.13185
482.27        13.13284
482.72        13.10868
483.16         13.0766
483.60        13.08878
484.04        13.13462
484.48         13.1701
484.93        13.28048
485.37         13.4946
485.81        13.61852
486.25        14.15868
486.69        13.15551
487.14        12.90506
487.58        13.67456
488.02        13.90925
488.46        13.78483
488.90        14.11033
489.34        13.97126
489.79         13.9613
490.23        14.34496
490.67         14.5712
491.11        14.75059
491.55        14.77365
491.99         14.6904
492.43        14.69615
492.88        14.80613
493.32        14.87834
493.76        14.91762
494.20        15.02366
494.64        15.20309
495.08        15.40701
495.52        15.60272
495.96          15.794
496.41        15.95076
496.85        15.95339
497.29        15.85854
497.73        15.94265
498.17        16.18504
498.61        16.26653
499.05        16.19416
499.49        16.22942
499.93          16.379
500.37        16.49879
500.82        16.58117
501.26         16.6752
501.70        16.77979
502.14        16.88015
502.58        16.97154
503.02        17.04854
503.46        17.11237
503.90        17.16803
504.34        17.22835
504.78        17.31209
505.22         17.4216
505.66        17.54873
506.10        17.67662
506.54        17.77732
506.98        17.84126
507.42        17.87581
507.86        17.88873
508.30        17.89225
508.74        17.89447
509.18        17.89685
509.62        17.90425
510.06        17.92395
510.50        17.95914
510.94        18.00897
511.38        18.07523
511.82        18.15926
512.26        18.25441
512.70        18.35162
513.14        18.43507
513.58        18.48252
514.02        18.48866
514.46        18.46182
514.90        18.40767
515.34        18.33702
515.78        18.26039
516.22        18.18096
516.66        18.11757
517.10        18.09641
517.54        18.12156
517.98        18.18682
518.42        18.26931
518.86        18.32887
519.30        18.35279
519.74        18.34802
520.18        18.32899
520.62        18.32209
521.06        18.33183
521.50        18.34529
521.93        18.35189
522.37        18.33088
522.81        18.28197
523.25        18.22051
523.69        18.15084
524.13        18.07663
524.57        18.00558
525.01        17.93772
525.45        17.89543
525.89        17.91387
526.32        17.99247
526.76         18.1123
527.20        18.23254
527.64        18.28668
528.08        18.25811
528.52        18.16952
528.96        18.04628
529.40           17.93
529.83        17.83539
530.27        17.75573
530.71          17.698
531.15        17.67736
531.59        17.69117
532.03        17.73485
532.46        17.77812
532.90        17.77301
533.34        17.71158
533.78        17.59601
534.22        17.45748
534.66        17.37416
535.09         17.3433
535.53          17.293
535.97        17.22615
536.41        17.20919
536.85        17.24308
537.28        17.29089
537.72        17.34723
538.16        17.42085
538.60        17.50464
539.04        17.58919
539.47        17.66525
539.91        17.73254
540.35        17.78603
540.79        17.83603
541.22        17.88334
541.66        17.90234
542.10        17.94304
542.54        17.97124
542.97        18.01292
543.41        18.09743
543.85        18.22392
544.29        18.38481
544.72        18.55503
545.16        18.70336
545.60        18.81916
546.04         18.9088
546.47        18.99035
546.91        19.09831
547.35        19.23941
547.79        19.39668
548.22        19.53833
548.66         19.6594
549.10        19.75741
549.53        19.74903
549.97        19.83781
550.41        19.94092
550.84        20.11715
551.28        20.34995
551.72        20.59842
552.15        20.77573
552.59        20.87381
553.03        20.94318
553.46         20.9989
553.90        21.07729
554.34        21.18921
554.77        21.28932
555.21        21.35045
555.65        21.56279
556.08        21.51548
556.52        21.55873
556.96        21.58358
557.39        21.63079
557.83        21.71181
558.27        21.78442
558.70        21.84904
559.14        22.01362
559.57        22.07584
560.01        22.22692
560.45        22.35796
560.88        22.37391
561.32        22.31804
561.75        22.22014
562.19        22.15277
562.63        22.32151
563.06        22.63596
563.50        22.61998
563.93        22.32807
564.37        22.28261
564.80        22.49138
565.24        22.67064
565.68        22.78715
566.11         22.9232
566.55        23.07459
566.98        23.20489
567.42        23.32821
567.85         23.4516
568.29        23.58689
568.72        23.71273
569.16        23.83483
569.60        23.92737
570.03        23.98041
570.47         23.9801
570.90        24.13365
571.34        24.04378
571.77        24.22741
572.21        24.32823
572.64        24.47831
573.08          24.495
573.51        24.90642
573.95        24.86627
574.38        24.78797
574.82        25.02595
