SpectraSmart Spectrum 2.9.0.0
--------- Device Information -----------
Spectrum Name :  反射率_0
Saving Time :  2024/05/01 17:01:11
Spectro-Module Model Name : SE2030-DUVN
Spectro-Module Serial Number : OS361AC55029948
Wavelength Start : 200
Wavelength End : 1025
Wavelength Unit : Wavelength(nm)
Spectrum Unit : Reflectance(%)
-----------Spectrum Setting ------------
Integration Time : 20ms
Average : 10
Boxcar : 0
Background removal :  enabled
linearity correction :  enabled
SC :  disabled
Intensity correction :  disabled
DWT denoise :  enabled
savitzky-golay :  disabled
FFT :  disabled
Running average :  disabled
Kalman :  disabled
High pass :  disabled
---------------BEGIN--------------------
Wavelength(nm)             Reflectance(%)
200.29               0
200.75        197.7184
201.21        730.0026
201.67       -272.0301
202.13       -88.48316
202.58       -31.78158
203.04        0.404064
203.50        19.04273
203.96        25.09831
204.42         19.3556
204.88       -13.15863
205.34       -889.7186
205.80        165.8223
206.26        105.0218
206.72        66.76073
207.18       -48.51487
207.64        242.5357
208.10        127.7762
208.55        95.06528
209.01        73.07412
209.47        52.87367
209.93        32.14157
210.39        7.302812
210.85       -20.38947
211.31       -53.16342
211.77        -131.718
212.23        416.2394
212.69        80.74432
213.14        69.55048
213.60        136.7798
214.06       -702.7307
214.52       -127.3009
214.98       -92.59305
215.44       -90.69511
215.90        -120.141
216.36       -634.6484
216.81        130.5692
217.27        93.57527
217.73       -116.9623
218.19       -22.12608
218.65       -25.42303
219.11        -48.7344
219.57       -129.7046
220.02       -471.0913
220.48       -248.9524
220.94       -68.13318
221.40       -20.84304
221.86       -2.744607
222.32        7.007573
222.77        15.37135
223.23        25.93051
223.69        38.20742
224.15         43.0394
224.61        37.56886
225.06        28.45479
225.52        22.45647
225.98        22.39039
226.44        27.66817
226.90        38.07035
227.36        51.62078
227.81        57.93178
228.27        52.97212
228.73        43.55406
229.19        35.61277
229.65        32.11098
230.10        32.41591
230.56        35.55521
231.02        40.51466
231.48        44.07362
231.93        44.44292
232.39        43.22482
232.85        41.93825
233.31        42.04667
233.77        43.48743
234.22         45.4481
234.68        47.42488
235.14        49.08579
235.60        50.45114
236.05        51.95201
236.51        53.56221
236.97        54.78684
237.43        54.93881
237.88        53.73313
238.34         51.4784
238.80        49.23784
239.26        46.96509
239.71         44.3532
240.17        40.39622
240.63        34.08805
241.08        27.29624
241.54        23.08104
242.00        21.90769
242.46        22.79834
242.91        25.85943
243.37         31.0938
243.83        42.48032
244.28        61.37592
244.74        73.82774
245.20        77.17645
245.66        74.78305
246.11        68.21029
246.57        56.87389
247.03        36.91683
247.48        3.511784
247.94       -34.89782
248.40       -58.05195
248.85       -62.58493
249.31       -48.37199
249.77         -25.343
250.22       -3.586233
250.68         14.6073
251.14        26.73495
251.59         31.6748
252.05        30.47652
252.51        20.79408
252.96        -6.00575
253.42       -39.94781
253.88       -23.98461
254.33        19.04452
254.79        42.51364
255.25        50.19704
255.70        51.30627
256.16        50.82337
256.62        50.39188
257.07        50.97623
257.53        52.54182
257.99        54.12366
258.44        55.26191
258.90        56.03357
259.35         56.2107
259.81        56.25346
260.27        56.04671
260.72        55.48534
261.18         54.9012
261.63        54.10965
262.09        53.43375
262.55        52.86248
263.00        52.29112
263.46        51.80797
263.91        51.24418
264.37        50.69073
264.83        50.09015
265.28        49.46451
265.74        48.84473
266.19        48.00837
266.65        47.07024
267.11        46.01711
267.56        45.08977
268.02        44.76178
268.47         45.0362
268.93        45.71907
269.38         46.4188
269.84        46.44745
270.30         45.6749
270.75        44.31926
271.21        42.74722
271.66        41.39298
272.12        40.45848
272.57          39.749
273.03        39.24738
273.48        38.86255
273.94        38.56388
274.39        38.35505
274.85        38.15034
275.31        37.73617
275.76        37.08517
276.22        36.31564
276.67        35.52019
277.13        34.95876
277.58        34.60292
278.04        34.41077
278.49        34.25121
278.95        34.05207
279.40        33.72747
279.86        33.36132
280.31        32.91231
280.77         32.4284
281.22        31.87654
281.68        31.31503
282.13        30.72505
282.59        30.18173
283.04         29.6652
283.50        29.21175
283.95        28.80787
284.41        28.49216
284.86        28.24819
285.32        28.07941
285.77        27.95957
286.22        27.88983
286.68        27.86005
287.13        27.84674
287.59        27.81143
288.04        27.65363
288.50        27.39485
288.95        27.02927
289.41        26.68802
289.86        26.47782
290.32         26.4402
290.77        26.52767
291.22        26.64238
291.68        26.62179
292.13        26.44297
292.59        26.20077
293.04        25.99828
293.50        26.04793
293.95        26.37014
294.40        26.88553
294.86        27.50498
295.31         28.1027
295.77        28.61259
296.22        29.05719
296.68         29.3996
297.13        29.56823
297.58        29.59149
298.04        29.52426
298.49        29.46201
298.95        29.59925
299.40        29.95937
299.85        30.47422
300.31        31.09768
300.76         31.7515
301.21        32.39085
301.67        33.03684
302.12        33.56811
302.58        33.82617
303.03        33.78577
303.48        33.53282
303.94        33.27695
304.39        33.26434
304.84        33.56432
305.30        34.08125
305.75        34.67662
306.20        35.14821
306.66        35.43496
307.11        35.58035
307.57        35.62325
308.02        35.56535
308.47        35.44582
308.93        35.26566
309.38        35.06098
309.83        34.94831
310.29        34.95364
310.74        35.04484
311.19        35.16159
311.65        35.18754
312.10        35.09074
312.55        34.91174
313.00        34.71364
313.46        34.59576
313.91        34.57533
314.36        34.61367
314.82        34.66005
315.27        34.64815
315.72        34.55036
316.18        34.39819
316.63        34.20054
317.08        33.97734
317.53        33.74049
317.99        33.48854
318.44        33.23446
318.89        33.01573
319.35        32.84554
319.80        32.72118
320.25          32.629
320.70        32.53742
321.16        32.43108
321.61        32.32425
322.06        32.22379
322.51        32.14733
322.97        32.09072
323.42        32.05454
323.87         32.0159
324.32         31.9518
324.78        31.84812
325.23        31.71869
325.68        31.57028
326.13        31.42264
326.59        31.27338
327.04        31.13457
327.49        30.98238
327.94        30.78751
328.39        30.54766
328.85        30.26694
329.30        30.00106
329.75        29.80609
330.20        29.69982
330.66        29.65963
331.11        29.65763
331.56        29.61089
332.01        29.49656
332.46        29.33362
332.92        29.14721
333.37        29.01619
333.82        28.95115
334.27        28.93838
334.72        28.95094
335.17        28.94467
335.63        28.89541
336.08        28.82945
336.53        28.77392
336.98        28.78552
337.43        28.87289
337.88         29.0196
338.34        29.15096
338.79        29.16373
339.24        29.02937
339.69        28.78292
340.14         28.5278
340.59        28.42804
341.05        28.51156
341.50        28.73229
341.95        28.98489
342.40        29.09842
342.85        29.03182
343.30        28.85102
343.75         28.6333
344.20        28.49595
344.66        28.47807
345.11        28.53107
345.56        28.64589
346.01        28.80255
346.46         28.9796
346.91        29.18296
347.36        29.36353
347.81        29.44778
348.26        29.42475
348.72        29.31363
349.17         29.1619
349.62        29.09041
350.07        29.12155
350.52        29.22201
350.97        29.31355
351.42        29.26385
351.87        29.05618
352.32        28.75757
352.77        28.44462
353.22        28.23325
353.67        28.14981
354.13         28.1455
354.58        28.19466
355.03        28.29692
355.48        28.43135
355.93        28.61267
356.38        28.73287
356.83        28.61159
357.28        28.23779
357.73        27.67838
358.18           27.14
358.63        26.93217
359.08        27.10154
359.53        27.54256
359.98        28.05807
360.43        28.30751
360.88         28.1919
361.33        27.82775
361.78        27.34149
362.23        26.91749
362.68        26.62006
363.13        26.39214
363.58        26.23031
364.03        26.13894
364.48        26.10023
364.93        26.10971
365.38        26.12806
365.83        26.08286
366.28        25.95222
366.73        25.75488
367.18         25.4845
367.63         25.1433
368.08        24.75993
368.53        24.35274
368.98        23.99602
369.43        23.79367
369.88        23.75764
370.33        23.85526
370.78         24.0132
371.23        24.09537
371.68        24.05227
372.13         23.9173
372.58         23.7231
373.03        23.52327
373.48        23.33902
373.93        23.15268
374.38        22.97429
374.83         22.8277
375.28        22.71665
375.72        22.63502
376.17        22.57015
376.62        22.49031
377.07         22.3823
377.52        22.25038
377.97        22.08937
378.42        21.89308
378.87        21.67113
379.32         21.4385
379.77         21.2143
380.22        21.02497
380.67        20.88106
381.11         20.7797
381.56        20.73019
382.01         20.7496
382.46        20.83196
382.91        20.96445
383.36        21.09742
383.81        21.16047
384.26        21.13089
384.71        21.01081
385.15        20.84054
385.60        20.70926
386.05         20.6299
386.50        20.59054
386.95        20.52459
387.40        20.32912
387.85        20.00562
388.29        19.59246
388.74         19.2348
389.19        19.07112
389.64        19.11917
390.09        19.31697
390.54        19.55841
390.98        19.67134
391.43        19.61692
391.88        19.45387
392.33        19.24648
392.78        19.09381
393.23         19.0231
393.67        18.97117
394.12        18.94331
394.57        18.96769
395.02         19.0084
395.47        18.94445
395.91        18.81891
396.36        18.79848
396.81        18.90088
397.26        19.03756
397.71        19.14515
398.15        19.17777
398.60        19.14549
399.05        18.98651
399.50        18.78972
399.95        18.81757
400.39        19.02657
400.84        19.05046
401.29        18.86006
401.74        18.71324
402.18        18.61599
402.63        18.39902
403.08        18.13241
403.53        18.00414
403.97        18.03294
404.42        18.16436
404.87        18.31787
405.32        18.36719
405.76        18.27752
406.21        18.09539
406.66        17.88845
407.11        17.76365
407.55         17.7548
408.00         17.8326
408.45        17.93989
408.90        17.95309
409.34         17.8547
409.79        17.72487
410.24        17.61937
410.68        17.57626
411.13         17.6122
411.58        17.72305
412.03        17.84899
412.47        17.87837
412.92        17.78222
413.37        17.60307
413.81        17.40866
414.26        17.31237
414.71        17.33313
415.15        17.44542
415.60        17.58313
416.05         17.6544
416.49        17.63048
416.94        17.53701
417.39         17.4286
417.83        17.39029
418.28        17.44112
418.73        17.55003
419.17        17.66071
419.62         17.6795
420.07        17.59468
420.51        17.44294
420.96        17.29516
421.41        17.23168
421.85        17.26582
422.30        17.37249
422.74        17.51597
423.19        17.66373
423.64        17.79314
424.08        17.91876
424.53        18.00383
424.98        18.01236
425.42        17.94477
425.87        17.82013
426.31        17.67146
426.76        17.56373
427.21        17.50961
427.65        17.48797
428.10        17.52152
428.54          17.637
428.99        17.82799
429.44        18.10646
429.88        18.34594
430.33        18.37162
430.77        18.17257
431.22        17.82734
431.66         17.4901
432.11        17.43794
432.56        17.66111
433.00        18.00671
433.45        18.26454
433.89        18.08674
434.34        17.45505
434.78        17.40937
435.23        18.03696
435.67        18.23293
436.12        18.01216
436.57        17.96214
437.01        18.09406
437.46        18.11002
437.90        18.00138
438.35        17.88679
438.79        17.79607
439.24        17.72656
439.68         17.7187
440.13        17.88577
440.57        18.15503
441.02        18.31885
441.46        18.34336
441.91        18.23762
442.35        18.06579
442.80        18.17337
443.24        18.45493
443.69        18.32543
444.13        17.87016
444.58        17.71671
445.02        17.88026
445.47        18.04148
445.91        18.13934
446.36        18.22698
446.80        18.28213
447.24        18.28947
447.69        18.27659
448.13        18.28827
448.58        18.33609
449.02        18.40232
449.47        18.46704
449.91        18.48642
450.36        18.45817
450.80        18.39352
451.25        18.32007
451.69        18.26671
452.13        18.24394
452.58        18.24541
453.02        18.24966
453.47        18.23507
453.91        18.19515
454.36        18.14688
454.80        18.10194
455.24         18.0757
455.69        18.07602
456.13        18.08158
456.58         18.1071
457.02        18.15172
457.46        18.21501
457.91        18.29613
458.35        18.35668
458.79         18.3092
459.24        18.15736
459.68         17.9786
460.13        17.86445
460.57        17.59313
461.01         17.6939
461.46        17.75148
461.90         17.8765
462.34        17.92107
462.79        17.96124
463.23        17.93492
463.68        17.89627
464.12        17.89047
464.56        17.92921
465.01        18.01877
465.45         18.0942
465.89         18.0946
466.34        18.01881
466.78        17.88206
467.22        17.74287
467.67        17.73283
468.11        17.80133
468.55        17.97655
468.99        18.17501
469.44        18.30301
469.88        18.33766
470.32        18.30198
470.77        18.23001
471.21          18.176
471.65        18.15949
472.10        18.16798
472.54        18.18362
472.98        18.19069
473.42        18.18596
473.87        18.18564
474.31        18.19096
474.75        18.21957
475.20        18.27754
475.64        18.34507
476.08        18.40396
476.52        18.47471
476.97        18.56044
477.41        18.56633
477.85        18.46902
478.29        18.75359
478.74        18.61703
479.18        18.67467
479.62        18.68494
480.06        18.75924
480.50        18.90572
480.95        18.75435
481.39        18.94802
481.83        18.95809
482.27        18.98303
482.72        19.02149
483.16        19.07371
483.60        19.14877
484.04        19.21888
484.48        19.27033
484.93        19.40991
485.37        19.58319
485.81        19.65121
486.25        20.23748
486.69         19.4534
487.14        19.04292
487.58        19.64239
488.02        20.07126
488.46         19.8077
488.90        19.75656
489.34        20.08407
489.79        20.02536
490.23        20.47993
490.67        20.66884
491.11        20.81932
491.55        20.85159
491.99        20.80915
492.43        20.83716
492.88        20.94481
493.32        21.04352
493.76         21.1278
494.20        21.25246
494.64        21.42363
495.08        21.60779
495.52        21.77612
495.96        21.95899
496.41        22.12734
496.85        22.09949
497.29        21.96305
497.73        22.13332
498.17        22.56893
498.61         22.7731
499.05        22.73058
499.49        22.81194
499.93        23.01886
500.37        23.13219
500.82        23.15503
501.26          23.198
501.70        23.27158
502.14        23.34773
502.58        23.42273
503.02        23.49152
503.46        23.55423
503.90        23.61907
504.34        23.69725
504.78         23.8007
505.22        23.92969
505.66        24.07821
506.10        24.22483
506.54        24.33512
506.98        24.40008
507.42        24.42866
507.86        24.44168
508.30        24.47246
508.74        24.53133
509.18        24.61113
509.62        24.69834
510.06        24.77007
510.50        24.81951
510.94        24.85291
511.38        24.88363
511.82         24.9322
512.26         25.0008
512.70        25.07965
513.14        25.14927
513.58        25.18068
514.02        25.16894
514.46        25.12606
514.90        25.07132
515.34        25.03553
515.78        25.02907
516.22         25.0442
516.66        25.07363
517.10        25.10453
517.54        25.13186
517.98        25.16017
518.42        25.18745
518.86        25.20937
519.30        25.22465
519.74        25.23069
520.18        25.23143
520.62         25.2356
521.06        25.24373
521.50        25.25235
521.93        25.25506
522.37         25.2359
522.81        25.19561
523.25        25.14205
523.69        25.08303
524.13         25.0292
524.57        24.98661
525.01        24.95432
525.45        24.93472
525.89        24.93202
526.32        24.94257
526.76        24.95767
527.20         24.9713
527.64        24.97373
528.08        24.96122
528.52        24.94118
528.96        24.89959
529.40        24.81589
529.83        24.69007
530.27        24.53533
530.71        24.39561
531.15        24.34549
531.59        24.39575
532.03        24.52235
532.46        24.65635
532.90        24.69139
533.34        24.60621
533.78        24.41817
534.22        24.19645
534.66        24.08775
535.09        24.09325
535.53        24.09434
535.97        24.06753
536.41         24.0639
536.85        24.07521
537.28        24.06667
537.72        24.04792
538.16        24.05663
538.60        24.09591
539.04        24.14788
539.47         24.2072
539.91        24.28277
540.35        24.36674
540.79        24.47129
541.22        24.58021
541.66        24.62993
542.10        24.68063
542.54        24.68934
542.97        24.70661
543.41        24.79725
543.85        24.96546
544.29        25.19218
544.72        25.42655
545.16        25.60222
545.60        25.69986
546.04        25.73808
546.47        25.76039
546.91        25.84267
547.35        26.00301
547.79        26.21033
548.22        26.40671
548.66        26.56232
549.10        26.66859
549.53        26.62319
549.97        26.71116
550.41        26.83608
550.84        27.07651
551.28        27.41781
551.72        27.80458
552.15        28.06576
552.59        28.17436
553.03        28.41546
553.46        28.43084
553.90        28.55683
554.34        28.69893
554.77        28.81015
555.21        28.86065
555.65        29.12671
556.08        29.06047
556.52        29.12386
556.96         29.1698
557.39        29.25282
557.83        29.38487
558.27        29.50949
558.70        29.61091
559.14        29.80918
559.57        29.83009
560.01        29.94386
560.45        30.03347
560.88        30.01667
561.32        29.96164
561.75        29.89411
562.19         29.8883
562.63        30.18811
563.06        30.66073
563.50        30.65686
563.93        30.26315
564.37         30.2299
564.80        30.56096
565.24        30.81531
565.68        30.94144
566.11        31.08475
566.55        31.24345
566.98        31.35077
567.42        31.44521
567.85        31.57344
568.29        31.75484
568.72        31.95137
569.16        32.17294
569.60        32.31911
570.03        32.35599
570.47        32.40044
570.90        32.75853
571.34        32.29988
571.77        32.73995
572.21        32.81627
572.64         33.0303
573.08        33.04341
573.51        33.52237
573.95        33.67192
574.38        33.49205
574.82         33.6315
