SpectraSmart Spectrum 2.9.0.0
--------- Device Information -----------
Spectrum Name :  反射率_0
Saving Time :  2024/05/01 17:00:53
Spectro-Module Model Name : SE2030-DUVN
Spectro-Module Serial Number : OS361AC55029948
Wavelength Start : 200
Wavelength End : 1025
Wavelength Unit : Wavelength(nm)
Spectrum Unit : Reflectance(%)
-----------Spectrum Setting ------------
Integration Time : 20ms
Average : 10
Boxcar : 0
Background removal :  enabled
linearity correction :  enabled
SC :  disabled
Intensity correction :  disabled
DWT denoise :  enabled
savitzky-golay :  disabled
FFT :  disabled
Running average :  disabled
Kalman :  disabled
High pass :  disabled
---------------BEGIN--------------------
Wavelength(nm)             Reflectance(%)
200.29               0
200.75        289.1228
201.21        1026.099
201.67       -372.8713
202.13       -122.6982
202.58       -48.72295
203.04       -8.144432
203.50         15.0078
203.96        22.96765
204.42        17.03313
204.88       -20.22798
205.34       -1053.193
205.80        198.4962
206.26        135.5742
206.72        109.3849
207.18        74.98495
207.64        114.2574
208.10        81.39437
208.55        65.73402
209.01        54.07204
209.47        47.38963
209.93        43.81225
210.39        39.55677
210.85        34.48948
211.31         27.4604
211.77        7.058058
212.23        145.8337
212.69         66.1534
213.14        78.99498
213.60        155.3556
214.06       -710.9817
214.52       -110.9651
214.98       -69.15465
215.44         -55.221
215.90       -45.16813
216.36        17.45198
216.81       -71.50993
217.27       -72.80096
217.73        -20.4469
218.19       -51.36597
218.65       -60.41514
219.11       -74.64655
219.57       -113.6821
220.02       -223.1026
220.48       -57.85678
220.94        -1.25279
221.40        8.863611
221.86        12.39039
222.32         15.7408
222.77        20.62425
223.23        27.81195
223.69        36.88308
224.15         41.2665
224.61         38.3947
225.06        32.98009
225.52        29.50939
225.98        29.76626
226.44        33.45275
226.90        40.20189
227.36        49.13037
227.81        54.29416
228.27        52.72861
228.73        48.30447
229.19        43.97867
229.65        41.07156
230.10        39.27119
230.56        37.92487
231.02        37.42093
231.48         38.9071
231.93        42.05246
232.39        45.97034
232.85        49.27967
233.31        50.87709
233.77        51.03482
234.22         50.3456
234.68        49.42294
235.14        49.06804
235.60        49.47941
236.05         50.5564
236.51        52.31513
236.97        54.40706
237.43        56.00597
237.88        56.89431
238.34        56.41236
238.80         54.3526
239.26        50.27908
239.71        43.17542
240.17         31.4571
240.63         17.5221
241.08        8.364946
241.54        7.105266
242.00        11.34231
242.46        17.49248
242.91        26.12751
243.37        40.13891
243.83        64.10734
244.28        89.35475
244.74        95.08566
245.20        87.25302
245.66        77.40156
246.11        69.82441
246.57        63.10536
247.03        54.13023
247.48         38.2591
247.94        12.52591
248.40       -15.99882
248.85       -39.77327
249.31       -46.60483
249.77       -32.95844
250.22       -10.33962
250.68         12.3613
251.14        28.70701
251.59        35.05723
252.05        32.04957
252.51        16.73133
252.96       -24.97112
253.42       -85.78403
253.88       -77.53853
254.33       -18.12246
254.79        19.72481
255.25         36.6216
255.70        44.11095
256.16        48.47947
256.62        51.08311
257.07        52.37906
257.53        53.21508
257.99         53.5105
258.44        53.59037
258.90        54.16851
259.35        54.89487
259.81        55.85975
260.27        56.52245
260.72        56.21425
261.18        55.25693
261.63        53.77809
262.09        52.39922
262.55        51.40464
263.00        50.69833
263.46        50.22484
263.91        49.70644
264.37        49.09464
264.83        48.33428
265.28        47.53794
265.74        46.78044
266.19        45.90017
266.65        45.02208
267.11        44.08939
267.56        43.36714
268.02        43.37277
268.47        44.08617
268.93        45.28035
269.38         46.4333
269.84        46.64993
270.30        45.76394
270.75        44.06477
271.21        42.06447
271.66        40.42196
272.12        39.39854
272.57        38.73859
273.03        38.35872
273.48        38.05903
273.94        37.77747
274.39        37.56657
274.85        37.35092
275.31        36.92762
275.76        36.27584
276.22        35.49418
276.67        34.69895
277.13        34.18824
277.58        33.93156
278.04        33.87246
278.49        33.82895
278.95        33.64813
279.40        33.23925
279.86        32.72309
280.31         32.1207
280.77        31.56423
281.22        31.03387
281.68         30.5514
282.13        30.06263
282.59        29.59071
283.04        29.10394
283.50        28.65886
283.95        28.24588
284.41        27.90789
284.86        27.63462
285.32        27.42327
285.77        27.26948
286.22        27.20577
286.68        27.22506
287.13        27.29952
287.59        27.35364
288.04        27.22482
288.50        26.92531
288.95        26.47135
289.41        26.04632
289.86        25.83326
290.32        25.88162
290.77        26.11404
291.22         26.3787
291.68        26.43368
292.13        26.23595
292.59         25.9028
293.04        25.58051
293.50        25.54682
293.95        25.84353
294.40        26.38248
294.86        27.03642
295.31        27.61806
295.77         28.0556
296.22        28.39516
296.68        28.66687
297.13        28.90115
297.58         29.1312
298.04         29.3602
298.49        29.59242
298.95        29.88026
299.40        30.21487
299.85        30.58506
300.31        31.00305
300.76        31.47549
301.21        31.99505
301.67        32.56479
302.12        33.08256
302.58        33.41911
303.03        33.53689
303.48        33.49759
303.94        33.46264
304.39        33.60823
304.84        33.98639
305.30        34.52115
305.75        35.07423
306.20        35.45135
306.66         35.6063
307.11        35.58316
307.57        35.47104
308.02        35.34478
308.47        35.25431
308.93        35.18734
309.38        35.11238
309.83        35.03493
310.29         34.9621
310.74         34.8959
311.19        34.85666
311.65        34.85519
312.10        34.88217
312.55        34.92999
313.00        34.97729
313.46        34.99372
313.91         34.9619
314.36        34.88173
314.82        34.76265
315.27        34.63754
315.72        34.50919
316.18        34.37894
316.63        34.21645
317.08        33.98258
317.53        33.67687
317.99        33.32391
318.44        32.96852
318.89        32.69696
319.35        32.53442
319.80         32.4562
320.25         32.4251
320.70        32.37414
321.16        32.27601
321.61        32.15856
322.06        32.02927
322.51        31.90711
322.97        31.79301
323.42        31.68358
323.87        31.58049
324.32        31.50236
324.78        31.44245
325.23        31.40686
325.68        31.35986
326.13        31.24969
326.59        31.05908
327.04        30.81864
327.49        30.55506
327.94        30.32698
328.39        30.15287
328.85        30.00636
329.30        29.89046
329.75        29.77185
330.20        29.63941
330.66         29.4998
331.11        29.35599
331.56        29.17595
332.01        28.96299
332.46        28.72749
332.92        28.50021
333.37        28.36893
333.82        28.34122
334.27        28.39754
334.72        28.50304
335.17        28.59381
335.63        28.63066
336.08        28.63949
336.53        28.61575
336.98        28.57145
337.43        28.51447
337.88        28.44342
338.34         28.3524
338.79        28.25408
339.24        28.15031
339.69        28.04665
340.14        27.97503
340.59        27.98082
341.05        28.05783
341.50        28.19116
341.95         28.3267
342.40        28.37675
342.85        28.32546
343.30        28.21513
343.75        28.07855
344.20        27.96811
344.66        27.90725
345.11        27.86253
345.56        27.88103
346.01        28.03249
346.46        28.30643
346.91         28.6741
347.36        28.99762
347.81        29.06896
348.26        28.86001
348.72        28.44635
349.17        27.97164
349.62        27.70899
350.07        27.72298
350.52        27.93003
350.97        28.20031
351.42        28.31539
351.87         28.2193
352.32        28.00089
352.77        27.72709
353.22        27.49772
353.67        27.34796
354.13         27.2373
354.58        27.17303
355.03        27.21018
355.48         27.3425
355.93        27.56931
356.38        27.77893
356.83        27.77722
357.28        27.53736
357.73        27.12647
358.18        26.71396
358.63        26.55666
359.08        26.69637
359.53        27.03914
359.98        27.44076
360.43        27.65454
360.88        27.60288
361.33        27.37264
361.78        27.03259
362.23        26.67949
362.68        26.35845
363.13        26.04121
363.58        25.76451
364.03        25.59856
364.48        25.54458
364.93        25.57504
365.38        25.62623
365.83        25.58855
366.28        25.43136
366.73        25.19264
367.18        24.87714
367.63        24.50221
368.08        24.10403
368.53        23.69241
368.98        23.34891
369.43        23.19155
369.88        23.22979
370.33        23.42499
370.78        23.67689
371.23        23.80043
371.68        23.73306
372.13        23.52324
372.58        23.23192
373.03        22.95702
373.48        22.73357
373.93        22.53333
374.38        22.35948
374.83        22.22252
375.28        22.12093
375.72        22.05569
376.17        22.01126
376.62        21.94982
377.07        21.85743
377.52         21.7372
377.97        21.58935
378.42        21.41832
378.87        21.23402
379.32         21.0456
379.77        20.86352
380.22        20.70215
380.67        20.56771
381.11        20.45894
381.56        20.38911
382.01        20.38211
382.46        20.43604
382.91        20.54069
383.36        20.64348
383.81        20.66793
384.26        20.59428
384.71        20.43064
385.15        20.23326
385.60        20.11452
386.05        20.08858
386.50        20.13077
386.95         20.1543
387.40        20.02534
387.85        19.73604
388.29        19.33356
388.74         18.9678
389.19        18.78655
389.64        18.81133
390.09        18.97478
390.54        19.18104
390.98        19.27493
391.43        19.22016
391.88        19.07508
392.33        18.88231
392.78        18.70801
393.23         18.5777
393.67        18.44018
394.12         18.3327
394.57         18.3306
395.02        18.40574
395.47        18.42362
395.91        18.38707
396.36        18.39636
396.81        18.45485
397.26        18.49752
397.71        18.49581
398.15        18.45535
398.60        18.39861
399.05        18.24948
399.50        18.07687
399.95        18.10996
400.39        18.30125
400.84        18.30936
401.29        18.11246
401.74        17.96659
402.18        17.88103
402.63        17.68698
403.08        17.45387
403.53         17.3689
403.97        17.44606
404.42        17.62615
404.87        17.81754
405.32        17.87606
405.76        17.76545
406.21        17.54314
406.66        17.28263
407.11         17.1001
407.55        17.03608
408.00        17.05805
408.45        17.13033
408.90        17.16566
409.34        17.14696
409.79         17.1379
410.24        17.14895
410.68        17.15254
411.13        17.15391
411.58        17.16791
412.03        17.17514
412.47        17.13904
412.92        17.05347
413.37        16.93493
413.81        16.82229
414.26        16.78572
414.71        16.83065
415.15         16.9469
415.60        17.07095
416.05        17.11306
416.49        17.05069
416.94        16.90939
417.39         16.7578
417.83         16.7048
418.28        16.77468
418.73        16.93078
419.17        17.10401
419.62         17.1786
420.07        17.13251
420.51        17.00273
420.96        16.86174
421.41        16.79469
421.85        16.81621
422.30        16.90052
422.74        17.00704
423.19        17.09452
423.64         17.1435
424.08        17.17713
424.53         17.1779
424.98        17.14196
425.42        17.07974
425.87         17.0005
426.31        16.92466
426.76        16.89616
427.21        16.91813
427.65        16.97328
428.10        17.06994
428.54        17.21449
428.99        17.39653
429.44        17.62871
429.88         17.8154
430.33        17.82797
430.77        17.66423
431.22        17.39149
431.66        17.12428
432.11        17.09246
432.56        17.27764
433.00        17.48399
433.45        17.56069
433.89        17.42119
434.34        16.99036
434.78        16.93378
435.23        17.36178
435.67        17.51067
436.12        17.40917
436.57        17.43712
437.01        17.59696
437.46        17.66713
437.90        17.62884
438.35        17.56859
438.79        17.50394
439.24        17.41726
439.68        17.35163
440.13        17.43598
440.57         17.6048
441.02        17.67551
441.46        17.63158
441.91         17.4545
442.35        17.24147
442.80        17.42821
443.24        17.88886
443.69         17.9051
444.13        17.51933
444.58        17.41743
445.02        17.60606
445.47        17.70482
445.91        17.69726
446.36        17.74398
446.80        17.83985
447.24        17.94035
447.69        18.02201
448.13        18.04966
448.58        18.01904
449.02        17.94131
449.47        17.85481
449.91        17.80336
450.36        17.80429
450.80        17.84282
451.25        17.88787
451.69        17.87714
452.13         17.8016
452.58        17.68448
453.02        17.56433
453.47        17.51238
453.91        17.54117
454.36        17.63384
454.80        17.74251
455.24        17.79015
455.69        17.76276
456.13        17.67134
456.58        17.57903
457.02         17.5577
457.46        17.62389
457.91        17.75058
458.35        17.86904
458.79        17.84596
459.24         17.6737
459.68        17.44944
460.13        17.28001
460.57         16.9751
461.01        17.05392
461.46        17.10575
461.90        17.23656
462.34         17.3033
462.79        17.37671
463.23        17.39816
463.68         17.4085
464.12        17.43145
464.56        17.47322
465.01        17.54242
465.45        17.59186
465.89        17.58616
466.34        17.52781
466.78        17.42595
467.22        17.31907
467.67        17.30297
468.11        17.32298
468.55        17.42079
468.99        17.54208
469.44        17.63665
469.88        17.69205
470.32        17.71707
470.77        17.72461
471.21        17.73328
471.65        17.74893
472.10         17.7673
472.54         17.7772
472.98         17.7735
473.42        17.75815
473.87        17.74429
474.31        17.73223
474.75        17.74017
475.20        17.77383
475.64        17.81283
476.08        17.84725
476.52         17.9065
476.97        17.99538
477.41        18.02423
477.85        17.94884
478.29        18.20658
478.74        18.01441
479.18        17.97779
479.62        17.90667
480.06         17.9778
480.50        18.20571
480.95        18.20509
481.39        18.53814
481.83        18.60165
482.27        18.57504
482.72        18.49027
483.16        18.39446
483.60        18.39205
484.04        18.49289
484.48        18.57873
484.93        18.73359
485.37        19.07031
485.81        19.40731
486.25        19.72844
486.69        18.95088
487.14        18.44119
487.58        18.99166
488.02        19.34303
488.46        19.27403
488.90        19.55401
489.34        19.42893
489.79        19.23421
490.23        19.61276
490.67        19.86125
491.11        20.14335
491.55        20.18472
491.99         20.0423
492.43        20.06562
492.88        20.27146
493.32        20.42728
493.76        20.51626
494.20        20.65355
494.64        20.84305
495.08        21.02564
495.52        21.18678
495.96        21.37565
496.41        21.56388
496.85         21.5936
497.29        21.51474
497.73        21.62553
498.17        21.90307
498.61        22.00406
499.05        21.94028
499.49        22.00236
499.93        22.19765
500.37        22.36193
500.82        22.48782
501.26        22.63153
501.70        22.78816
502.14        22.94327
502.58        23.06875
503.02        23.12228
503.46        23.10451
503.90        23.03524
504.34        22.97466
504.78        23.01848
505.22        23.18612
505.66        23.44603
506.10        23.73315
506.54        23.93729
506.98        24.02479
507.42        24.02822
507.86         23.9845
508.30        23.95262
508.74        23.95587
509.18        23.97832
509.62        24.01902
510.06        24.07815
510.50        24.15221
510.94        24.24374
511.38        24.34508
511.82        24.43944
512.26        24.51819
512.70        24.57898
513.14         24.6168
513.58        24.62794
514.02        24.61441
514.46        24.58026
514.90        24.53395
515.34        24.48971
515.78        24.45465
516.22        24.42839
516.66        24.41541
517.10        24.41978
517.54         24.4397
517.98        24.47333
518.42        24.50858
518.86        24.52451
519.30        24.51692
519.74          24.492
520.18        24.45944
520.62        24.43692
521.06        24.42773
521.50        24.42178
521.93        24.42059
522.37        24.42086
522.81         24.4226
523.25          24.432
523.69        24.42852
524.13        24.37867
524.57        24.28308
525.01        24.15334
525.45         24.0372
525.89        24.01006
526.32        24.08187
526.76        24.22312
527.20        24.37483
527.64        24.44073
528.08        24.39699
528.52        24.27793
528.96         24.1225
529.40        23.99249
529.83        23.90587
530.27        23.84701
530.71        23.81395
531.15        23.81044
531.59        23.82972
532.03         23.8725
532.46        23.90497
532.90        23.87593
533.34        23.77946
533.78        23.61406
534.22        23.42612
534.66         23.3275
535.09        23.31201
535.53        23.27859
535.97        23.21507
536.41        23.18492
536.85        23.18521
537.28        23.17565
537.72        23.16586
538.16          23.194
538.60        23.26046
539.04         23.3468
539.47        23.43749
539.91        23.52546
540.35        23.60007
540.79        23.67669
541.22        23.75218
541.66        23.78522
542.10        23.84064
542.54        23.87502
542.97        23.92479
543.41        24.03259
543.85        24.19879
544.29        24.40922
544.72          24.635
545.16        24.84337
545.60        25.01815
546.04        25.16446
546.47        25.28945
546.91        25.41091
547.35        25.53508
547.79        25.65116
548.22        25.74046
548.66        25.83063
549.10        25.92686
549.53        25.91253
549.97        26.04064
550.41        26.17994
550.84        26.40138
551.28        26.69045
551.72        27.00366
552.15        27.24264
552.59        27.39884
553.03        27.52929
553.46        27.64301
553.90        27.77286
554.34        27.92992
554.77        28.06116
555.21        28.13501
555.65        28.40869
556.08        28.34398
556.52        28.39885
556.96        28.43501
557.39        28.51532
557.83        28.65373
558.27        28.78992
558.70        28.90938
559.14        29.13128
559.57        29.18544
560.01        29.33248
560.45        29.44411
560.88        29.42796
561.32         29.3448
561.75        29.20617
562.19        29.11595
562.63        29.37432
563.06        29.85978
563.50        29.92279
563.93        29.61187
564.37        29.59197
564.80        29.86684
565.24        30.06799
565.68        30.15928
566.11        30.26287
566.55        30.38534
566.98        30.48186
567.42        30.58583
567.85        30.72612
568.29        30.91827
568.72        31.12507
569.16        31.35418
569.60        31.53005
570.03        31.62309
570.47        31.69463
570.90        32.01694
571.34        31.69106
571.77         31.9871
572.21         32.0075
572.64        32.15919
573.08         32.1469
573.51        32.54222
573.95        33.03368
574.38        32.47238
574.82        32.92878
