SpectraSmart Spectrum 2.9.0.0
--------- Device Information -----------
Spectrum Name :  反射率_0
Saving Time :  2024/05/01 16:46:04
Spectro-Module Model Name : SE2030-DUVN
Spectro-Module Serial Number : OS361AC55029948
Wavelength Start : 200
Wavelength End : 1025
Wavelength Unit : Wavelength(nm)
Spectrum Unit : Reflectance(%)
-----------Spectrum Setting ------------
Integration Time : 20ms
Average : 10
Boxcar : 0
Background removal :  enabled
linearity correction :  enabled
SC :  disabled
Intensity correction :  disabled
DWT denoise :  enabled
savitzky-golay :  disabled
FFT :  disabled
Running average :  disabled
Kalman :  disabled
High pass :  disabled
---------------BEGIN--------------------
Wavelength(nm)             Reflectance(%)
200.29               0
200.75        221.5396
201.21        860.7856
201.67       -341.1383
202.13       -130.1282
202.58       -70.61018
203.04       -39.22723
203.50       -22.02376
203.96       -17.38143
204.42       -25.16516
204.88       -64.50335
205.34        -1141.89
205.80        167.7716
206.26        107.7384
206.72        92.97617
207.18        116.8124
207.64      -0.5360726
208.10        26.58097
208.55        27.62748
209.01        24.11824
209.47        20.51194
209.93        16.72565
210.39         10.8691
210.85        2.999614
211.31        -9.19987
211.77       -46.24244
212.23        225.5679
212.69        65.23275
213.14        72.61529
213.60         153.434
214.06       -789.5909
214.52       -138.8334
214.98       -95.96041
215.44       -86.60274
215.90       -95.33559
216.36       -339.0248
216.81        52.15167
217.27        101.5862
217.73       -452.8638
218.19        -160.801
218.65       -155.0668
219.11       -198.6021
219.57       -354.8163
220.02       -948.4758
220.48       -437.3924
220.94       -123.9952
221.40       -48.67691
221.86       -22.87805
222.32       -12.04888
222.77       -5.960381
223.23       -1.671614
223.69        2.064802
224.15        4.877039
224.61        5.825814
225.06        5.556794
225.52        4.993309
225.98        4.575099
226.44        4.362988
226.90        4.192291
227.36        4.690183
227.81        6.865204
228.27        9.895007
228.73        12.62946
229.19        14.32197
229.65         14.7384
230.10        14.18524
230.56        13.04615
231.02        11.70892
231.48        11.45821
231.93        12.73106
232.39        14.70217
232.85        17.04329
233.31        19.65231
233.77        22.32722
234.22        25.05103
234.68        27.30458
235.14        28.67075
235.60        29.18673
236.05        28.90684
236.51        28.12302
236.97        27.94514
237.43        29.09311
237.88        31.27474
238.34        33.25145
238.80        33.82731
239.26        32.52439
239.71         29.0593
240.17        22.46508
240.63        13.53858
241.08        6.423198
241.54        3.805725
242.00        4.807321
242.46            7.37
242.91        11.74743
243.37        19.05411
243.83        34.00512
244.28        56.65656
244.74        70.22282
245.20        72.37466
245.66        68.92221
246.11        62.89381
246.57        53.77666
247.03        38.23672
247.48         10.8398
247.94       -26.01138
248.40       -57.00511
248.85       -75.27434
249.31       -72.48878
249.77        -50.8483
250.22       -23.52352
250.68        1.910854
251.14        20.13707
251.59        28.71471
252.05        29.36323
252.51        21.05006
252.96       -5.251269
253.42       -43.21944
253.88       -35.93295
254.33        2.437209
254.79        26.79219
255.25        38.26997
255.70        43.86251
256.16        47.49998
256.62        49.62739
257.07        50.19141
257.53        50.11406
257.99        49.57655
258.44        48.95444
258.90        48.92138
259.35         49.1331
259.81        49.63017
260.27        49.94318
260.72        49.51121
261.18        48.63546
261.63        47.41838
262.09          46.354
262.55        45.64534
263.00        45.17958
263.46        44.86705
263.91        44.50102
264.37        44.09243
264.83        43.56327
265.28        42.97713
265.74        42.28286
266.19        41.16518
266.65        39.75129
267.11        38.09051
267.56        36.57734
268.02        35.91741
268.47        36.16437
268.93        37.04431
269.38        38.05219
269.84         38.2999
270.30        37.59796
270.75        36.23814
271.21        34.60804
271.66        33.18525
272.12        32.19297
272.57        31.41169
273.03        30.88688
273.48        30.64562
273.94        30.64157
274.39        30.83582
274.85        30.99396
275.31        30.70905
275.76         29.9404
276.22        28.87774
276.67        27.75221
277.13        26.98673
277.58        26.59762
278.04        26.47694
278.49        26.43569
278.95        26.29383
279.40        25.95281
279.86        25.53258
280.31        25.04035
280.77        24.55831
281.22         24.0758
281.68        23.61669
282.13        23.16077
282.59        22.76059
283.04        22.40022
283.50        22.11487
283.95        21.89203
284.41        21.75351
284.86        21.68192
285.32        21.66989
285.77        21.70726
286.22        21.80991
286.68        21.97281
287.13        22.17241
287.59        22.34963
288.04        22.36855
288.50        22.24077
288.95        21.98001
289.41        21.73874
289.86        21.67051
290.32        21.81782
290.77        22.11473
291.22        22.44532
291.68        22.62442
292.13        22.61589
292.59        22.51552
293.04        22.41229
293.50        22.49143
293.95         22.7804
294.40        23.22309
294.86        23.75859
295.31         24.3063
295.77        24.81828
296.22        25.30571
296.68        25.74637
297.13        26.09406
297.58         26.3611
298.04        26.57933
298.49        26.77721
298.95        27.04101
299.40         27.3759
299.85        27.75539
300.31        28.18872
300.76        28.68621
301.21        29.23301
301.67        29.82754
302.12        30.35838
302.58        30.67643
303.03          30.745
303.48        30.64023
303.94        30.52011
304.39        30.56108
304.84        30.81873
305.30        31.21582
305.75        31.65677
306.20        32.00898
306.66        32.23186
307.11        32.35477
307.57        32.38842
308.02        32.29633
308.47        32.10719
308.93        31.83476
309.38        31.54378
309.83        31.38868
310.29        31.40082
310.74        31.53616
311.19        31.69407
311.65        31.69838
312.10        31.50816
312.55        31.18191
313.00        30.83273
313.46        30.63922
313.91        30.63305
314.36        30.74718
314.82        30.87699
315.27        30.86812
315.72        30.67279
316.18        30.35413
316.63        29.96418
317.08         29.5826
317.53        29.23717
317.99        28.90479
318.44        28.58536
318.89        28.29915
319.35         28.0511
319.80        27.84782
320.25        27.66774
320.70        27.46133
321.16        27.21488
321.61        26.94897
322.06        26.69007
322.51        26.49075
322.97        26.35469
323.42        26.26329
323.87        26.18819
324.32        26.09374
324.78        25.95779
325.23        25.80285
325.68        25.60441
326.13        25.32965
326.59        24.97541
327.04        24.56536
327.49        24.15341
327.94         23.8419
328.39        23.65807
328.85        23.57143
329.30        23.53614
329.75          23.442
330.20        23.25294
330.66        22.98983
331.11        22.69753
331.56        22.42722
332.01          22.204
332.46        22.01832
332.92        21.84739
333.37        21.68292
333.82        21.51283
334.27         21.3451
334.72        21.21842
335.17        21.19668
335.63        21.27379
336.08        21.42857
336.53        21.57586
336.98        21.59301
337.43        21.45263
337.88         21.2002
338.34        20.88159
338.79        20.59344
339.24        20.37259
339.69        20.18988
340.14        20.08261
340.59        20.10519
341.05        20.24081
341.50        20.47891
341.95        20.69862
342.40        20.70096
342.85        20.45392
343.30        20.02922
343.75        19.56564
344.20        19.28376
344.66        19.24364
345.11        19.36695
345.56        19.58899
346.01        19.79394
346.46        19.92751
346.91        20.01931
347.36        20.04728
347.81        19.97769
348.26        19.81858
348.72        19.58806
349.17        19.32158
349.62        19.12092
350.07        19.01107
350.52        18.96464
350.97        18.95911
351.42        18.94789
351.87        18.91468
352.32        18.88593
352.77        18.83042
353.22        18.70004
353.67         18.4971
354.13        18.23595
354.58         17.9945
355.03        17.92351
355.48        18.04454
355.93        18.32018
356.38        18.61392
356.83        18.69417
357.28        18.51339
357.73        18.14924
358.18        17.76505
358.63         17.6045
359.08        17.71342
359.53          18.007
359.98        18.35118
360.43        18.52035
360.88        18.44821
361.33        18.21451
361.78        17.90744
362.23        17.65355
362.68        17.49107
363.13         17.3747
363.58        17.28602
364.03         17.2023
364.48        17.10932
364.93        17.02031
365.38        16.92292
365.83        16.78863
366.28        16.61607
366.73        16.41743
367.18        16.20866
367.63        16.02089
368.08        15.87054
368.53        15.75122
368.98        15.67286
369.43        15.64909
369.88        15.66883
370.33        15.71488
370.78        15.75039
371.23        15.71296
371.68        15.58521
372.13          15.392
372.58        15.14793
373.03        14.87308
373.48        14.58574
373.93        14.28862
374.38        14.03176
374.83        13.89598
375.28        13.89542
375.72        14.00474
376.17        14.15337
376.62        14.22963
377.07        14.20291
377.52        14.09861
377.97         13.9585
378.42         13.8532
378.87        13.80198
379.32        13.78144
379.77        13.76461
380.22         13.7124
380.67         13.6167
381.11        13.49721
381.56        13.37752
382.01        13.29708
382.46        13.26743
382.91        13.27663
383.36        13.29678
383.81        13.28755
384.26        13.23581
384.71        13.14629
385.15         13.0436
385.60         12.9817
386.05        12.96599
386.50        12.98972
386.95        13.00436
387.40        12.93604
387.85        12.78306
388.29        12.56503
388.74          12.388
389.19        12.35544
389.64        12.47696
390.09        12.70215
390.54        12.94318
390.98        13.05771
391.43        13.01432
391.88        12.87307
392.33        12.68682
392.78        12.53594
393.23        12.44524
393.67        12.36378
394.12        12.31879
394.57        12.36216
395.02        12.46978
395.47        12.55334
395.91        12.58202
396.36        12.56706
396.81        12.50995
397.26        12.38922
397.71        12.24448
398.15        12.16914
398.60        12.19006
399.05         12.2175
399.50        12.24852
399.95        12.37216
400.39        12.54069
400.84        12.54334
401.29        12.37069
401.74        12.21048
402.18        12.07859
402.63        11.85389
403.08        11.61403
403.53        11.53342
403.97        11.62708
404.42        11.84511
404.87        12.07574
405.32        12.13724
405.76        11.99079
406.21        11.70432
406.66        11.38564
407.11        11.20805
407.55        11.22009
408.00        11.36588
408.45        11.57332
408.90        11.69914
409.34        11.70142
409.79         11.6493
410.24        11.57068
410.68        11.47457
411.13        11.37833
411.58        11.28443
412.03        11.19286
412.47        11.10599
412.92        11.02903
413.37         10.9687
413.81        10.93632
414.26        10.95325
414.71        11.01354
415.15        11.11484
415.60        11.21141
416.05        11.24214
416.49        11.19185
416.94        11.07641
417.39        10.94888
417.83        10.89553
418.28        10.93734
418.73        11.04959
419.17        11.17998
419.62        11.23594
420.07        11.20131
420.51        11.10335
420.96        11.00215
421.41        10.97018
421.85        11.01613
422.30        11.11217
422.74        11.21642
423.19        11.27779
423.64         11.2796
424.08        11.24816
424.53        11.17572
424.98        11.07173
425.42        10.95199
425.87        10.82226
426.31        10.71151
426.76        10.67575
427.21        10.71612
427.65        10.81444
428.10        10.94333
428.54         11.0515
428.99        11.12138
429.44        11.18598
429.88        11.21426
430.33        11.16271
430.77        11.03612
431.22        10.85969
431.66        10.70246
432.11        10.69284
432.56        10.80973
433.00        10.99339
433.45        11.11697
433.89        10.93328
434.34        10.46415
434.78        10.41371
435.23        10.83516
435.67        11.00785
436.12        10.93114
436.57        10.99693
437.01        11.18651
437.46        11.24614
437.90        11.15392
438.35        11.00201
438.79         10.8354
439.24        10.69588
439.68        10.62318
440.13        10.67525
440.57        10.79742
441.02         10.8526
441.46        10.82052
441.91        10.69891
442.35        10.54305
442.80        10.61159
443.24        10.82646
443.69        10.75595
444.13        10.44828
444.58        10.34527
445.02        10.45556
445.47        10.54588
445.91        10.59156
446.36        10.66296
446.80        10.74927
447.24        10.82837
447.69        10.89084
448.13        10.92609
448.58        10.93248
449.02        10.91162
449.47        10.87996
449.91        10.85524
450.36        10.84674
450.80          10.849
451.25        10.85115
451.69        10.82707
452.13        10.77364
452.58        10.70188
453.02        10.62735
453.47        10.58204
453.91        10.57183
454.36        10.59171
454.80        10.61967
455.24        10.61675
455.69        10.57753
456.13        10.50552
456.58        10.44035
457.02        10.42691
457.46        10.47425
457.91        10.56524
458.35        10.64938
458.79         10.6313
459.24        10.50595
459.68        10.33436
460.13        10.19602
460.57        9.998135
461.01        10.05336
461.46        10.11273
461.90        10.22611
462.34        10.28372
462.79        10.32072
463.23        10.30578
463.68        10.28115
464.12        10.28872
464.56         10.3375
465.01        10.42184
465.45        10.48728
465.89        10.47246
466.34         10.3759
466.78        10.21475
467.22         10.0477
467.67        9.993563
468.11        10.03528
468.55        10.17859
468.99        10.35146
469.44        10.46087
469.88         10.4848
470.32        10.44694
470.77         10.3834
471.21        10.34925
471.65        10.36183
472.10        10.39976
472.54        10.44229
472.98        10.46683
473.42         10.4677
473.87        10.46409
474.31        10.45137
474.75        10.43161
475.20        10.41141
475.64        10.38106
476.08        10.35789
476.52        10.39603
476.97        10.50291
477.41         10.6154
477.85        10.67529
478.29        10.89248
478.74        10.78834
479.18        10.74041
479.62        10.65834
480.06        10.68745
480.50        10.84455
480.95        10.87903
481.39        11.12054
481.83        11.19737
482.27        11.21286
482.72        11.19619
483.16        11.15766
483.60         11.1399
484.04        11.14134
484.48        11.10478
484.93        11.13734
485.37        11.35261
485.81        11.57712
486.25        12.08307
486.69        11.34425
487.14        11.09856
487.58        11.60042
488.02        11.91047
488.46        11.63673
488.90        11.95871
489.34        11.58805
489.79        11.60804
490.23        12.10035
490.67        12.40126
491.11        12.56872
491.55        12.53035
491.99        12.36244
492.43        12.32014
492.88        12.43268
493.32        12.51386
493.76        12.56014
494.20        12.67738
494.64        12.86819
495.08        13.08599
495.52        13.29326
495.96        13.48079
496.41        13.62121
496.85        13.60616
497.29        13.50197
497.73        13.59549
498.17        13.86464
498.61        13.97553
499.05        13.92613
499.49        13.97751
499.93        14.13237
500.37        14.23932
500.82        14.29435
501.26        14.35798
501.70        14.43277
502.14        14.50263
502.58        14.56089
503.02        14.59838
503.46        14.61783
503.90         14.6289
504.34        14.65325
504.78         14.7226
505.22        14.84162
505.66        14.99647
506.10        15.16186
506.54        15.29577
506.98        15.38223
507.42        15.43077
507.86        15.44817
508.30        15.44626
508.74        15.43537
509.18        15.41809
509.62        15.40503
510.06        15.41402
510.50        15.45043
510.94        15.50902
511.38           15.59
511.82         15.6909
512.26        15.80222
512.70        15.91731
513.14        16.01011
513.58        16.04218
514.02        16.00827
514.46        15.92254
514.90        15.81379
515.34         15.7304
515.78         15.6903
516.22        15.68445
516.66        15.70586
517.10        15.73992
517.54        15.77942
517.98        15.82881
518.42        15.88173
518.86        15.92601
519.30        15.95693
519.74        15.97188
520.18        15.97393
520.62        15.97254
521.06        15.96866
521.50        15.95754
521.93         15.9374
522.37        15.90081
522.81        15.85055
523.25        15.79532
523.69        15.73471
524.13        15.66591
524.57        15.59302
525.01        15.51801
525.45        15.45932
525.89        15.44575
526.32        15.47752
526.76        15.53884
527.20        15.59927
527.64        15.60916
528.08        15.55723
528.52        15.46306
528.96        15.34524
529.40        15.23328
529.83        15.13869
530.27        15.05756
530.71        15.00046
531.15        14.98769
531.59        15.01712
532.03        15.08034
532.46        15.14407
532.90        15.15551
533.34        15.10466
533.78        14.99666
534.22        14.86224
534.66        14.77447
535.09        14.73354
535.53        14.67702
535.97        14.60745
536.41        14.58168
536.85        14.59979
537.28        14.62989
537.72        14.66663
538.16        14.71621
538.60        14.77211
539.04        14.82781
539.47        14.87308
539.91        14.90348
540.35        14.91657
540.79        14.92526
541.22        14.93888
541.66        14.94915
542.10        15.00047
542.54        15.05811
542.97        15.13785
543.41        15.25579
543.85        15.40507
544.29        15.57886
544.72        15.75024
545.16        15.88437
545.60        15.97256
546.04        16.02403
546.47        16.06177
546.91        16.12907
547.35         16.2368
547.79        16.36788
548.22        16.49611
548.66        16.61675
549.10        16.72615
549.53        16.75423
549.97        16.86602
550.41        16.97748
550.84        17.13618
551.28        17.33182
551.72        17.54062
552.15        17.70736
552.59        17.82873
553.03        17.94095
553.46        18.04722
553.90        18.16388
554.34        18.29678
554.77        18.41255
555.21        18.49012
555.65        18.69876
556.08        18.68249
556.52        18.73857
556.96        18.77701
557.39        18.84105
557.83        18.94088
558.27        19.04102
558.70        19.12406
559.14        19.25515
559.57        19.25607
560.01        19.30595
560.45         19.3455
560.88        19.34656
561.32        19.35477
561.75        19.37658
562.19        19.43581
562.63         19.6544
563.06        19.93873
563.50        19.88571
563.93        19.57405
564.37        19.50992
564.80        19.71021
565.24        19.91026
565.68        20.05896
566.11        20.19548
566.55        20.31024
566.98        20.38833
567.42        20.45894
567.85        20.55248
568.29        20.68618
568.72         20.8301
569.16         20.9851
569.60        21.12793
570.03        21.24406
570.47        21.31073
570.90        21.49782
571.34        21.47704
571.77        21.63792
572.21        21.72515
572.64        21.85596
573.08        21.89404
573.51        22.30448
573.95        22.31389
574.38        22.30669
574.82        22.43798
