SpectraSmart Spectrum 2.9.0.0
--------- Device Information -----------
Spectrum Name :  反射率_0
Saving Time :  2024/05/01 16:48:07
Spectro-Module Model Name : SE2030-DUVN
Spectro-Module Serial Number : OS361AC55029948
Wavelength Start : 200
Wavelength End : 1025
Wavelength Unit : Wavelength(nm)
Spectrum Unit : Reflectance(%)
-----------Spectrum Setting ------------
Integration Time : 20ms
Average : 10
Boxcar : 0
Background removal :  enabled
linearity correction :  enabled
SC :  disabled
Intensity correction :  disabled
DWT denoise :  enabled
savitzky-golay :  disabled
FFT :  disabled
Running average :  disabled
Kalman :  disabled
High pass :  disabled
---------------BEGIN--------------------
Wavelength(nm)             Reflectance(%)
200.29               0
200.75        265.8352
201.21        983.6189
201.67       -361.2431
202.13       -118.3211
202.58       -45.89046
203.04       -5.538164
203.50        17.59134
203.96        25.16351
204.42        17.99879
204.88       -24.07989
205.34       -1188.487
205.80        224.1619
206.26        156.0085
206.72        133.4366
207.18         137.462
207.64        40.77098
208.10        45.13042
208.55         34.2645
209.01           22.98
209.47        16.43591
209.93        13.31315
210.39        9.553277
210.85        3.241894
211.31       -11.47235
211.77       -66.81313
212.23        365.2445
212.69        108.9811
213.14        110.5026
213.60        199.0893
214.06       -865.2466
214.52        -132.995
214.98       -86.53043
215.44       -79.60838
215.90       -99.66823
216.36       -528.5317
216.81        150.4934
217.27        224.7519
217.73       -664.6907
218.19       -190.1104
218.65       -164.3204
219.11       -196.1201
219.57       -327.3604
220.02       -819.5139
220.48       -361.9863
220.94       -101.5771
221.40       -40.87632
221.86        -20.3056
222.32       -11.06376
222.77       -4.808147
223.23       0.8902196
223.69        7.374808
224.15        12.87724
224.61        14.87901
225.06        14.54229
225.52        13.76616
225.98        13.52724
226.44        13.94229
226.90        14.74086
227.36        16.11698
227.81        17.88245
228.27        19.15899
228.73        19.81219
229.19        19.86352
229.65        19.24822
230.10        18.04125
230.56        16.54336
231.02        14.80417
231.48        13.55758
231.93        13.41529
232.39        13.94205
232.85        15.54537
233.31         18.7849
233.77        23.12237
234.22         28.0246
234.68        32.23911
235.14        34.47777
235.60        34.60107
236.05        32.69217
236.51        29.02765
236.97        25.90893
237.43        25.44252
237.88        27.60564
238.34        30.46702
238.80        31.20047
239.26        28.64121
239.71        22.39023
240.17        11.61774
240.63      -0.2380563
241.08       -6.117525
241.54       -4.332544
242.00       0.7577522
242.46        4.388494
242.91         6.34098
243.37         6.78639
243.83        10.25595
244.28        27.17305
244.74        47.90071
245.20         60.8961
245.66        65.06259
246.11        61.98489
246.57        52.48085
247.03        33.55183
247.48       0.9823214
247.94       -35.52739
248.40       -55.66683
248.85       -57.15776
249.31       -42.15009
249.77       -22.04926
250.22       -5.002863
250.68        8.444609
251.14        16.89677
251.59        19.41629
252.05        16.39472
252.51         4.73696
252.96       -26.46423
253.42       -71.43988
253.88       -64.90552
254.33       -19.00305
254.79         10.6626
255.25        24.57934
255.70        31.52878
256.16        35.95173
256.62        38.98964
257.07        41.04566
257.53        42.63204
257.99        43.65015
258.44        44.31501
258.90        45.15099
259.35        45.91122
259.81        46.73689
260.27        47.20355
260.72        46.78672
261.18        45.80678
261.63        44.39885
262.09        43.09271
262.55        42.13779
263.00        41.46178
263.46         40.9996
263.91        40.54603
264.37        40.08363
264.83        39.54149
265.28        38.96985
265.74        38.37588
266.19        37.54943
266.65        36.59146
267.11        35.50097
267.56        34.50903
268.02        34.06757
268.47        34.19332
268.93        34.70047
269.38         35.2597
269.84        35.27464
270.30        34.62788
270.75        33.50654
271.21        32.18967
271.66        30.99107
272.12        30.08233
272.57        29.31852
273.03        28.73897
273.48         28.3553
273.94        28.15367
274.39        28.11501
274.85        28.10577
275.31        27.87746
275.76        27.38584
276.22        26.72873
276.67        26.02908
277.13        25.55257
277.58        25.28551
278.04        25.18048
278.49        25.05915
278.95        24.75817
279.40        24.21405
279.86        23.54506
280.31        22.85558
280.77        22.35681
281.22         22.0414
281.68        21.88078
282.13        21.72561
282.59        21.43658
283.04        20.97378
283.50        20.43608
283.95        19.93181
284.41        19.66754
284.86        19.66746
285.32         19.8566
285.77         20.1246
286.22        20.34638
286.68        20.48578
287.13        20.55912
287.59        20.58372
288.04         20.5456
288.50        20.47807
288.95        20.35148
289.41         20.2252
289.86        20.12622
290.32         20.0873
290.77        20.10582
291.22        20.16529
291.68        20.22891
292.13        20.29196
292.59        20.39101
293.04        20.54718
293.50        20.83865
293.95        21.25586
294.40        21.77487
294.86        22.34187
295.31        22.88767
295.77        23.37869
296.22        23.82195
296.68         24.2231
297.13        24.58735
297.58        24.93038
298.04         25.2621
298.49         25.5849
298.95        25.93776
299.40        26.31019
299.85        26.69608
300.31        27.09297
300.76        27.49334
301.21        27.89599
301.67        28.31471
302.12        28.70247
302.58        29.01165
303.03        29.21674
303.48         29.3462
303.94        29.48941
304.39         29.7266
304.84        30.08961
305.30        30.53611
305.75        30.97778
306.20        31.29583
306.66        31.46367
307.11        31.50078
307.57        31.46715
308.02        31.40388
308.47        31.34483
308.93        31.28461
309.38        31.20064
309.83        31.10711
310.29        31.01194
310.74        30.91512
311.19        30.82096
311.65        30.71832
312.10        30.60157
312.55         30.4769
313.00        30.35812
313.46        30.26693
313.91        30.19834
314.36        30.13811
314.82        30.06506
315.27        29.96007
315.72        29.80919
316.18        29.62313
316.63        29.39362
317.08        29.11097
317.53        28.78157
317.99         28.4222
318.44        28.05406
318.89        27.72932
319.35        27.46854
319.80        27.25808
320.25        27.09909
320.70        26.98379
321.16        26.89353
321.61        26.83217
322.06        26.75706
322.51        26.60447
322.97        26.35538
323.42         26.0317
323.87        25.67673
324.32        25.37867
324.78        25.15905
325.23        25.00663
325.68        24.87697
326.13        24.70035
326.59        24.45048
327.04        24.16172
327.49        23.85557
327.94        23.57667
328.39        23.34024
328.85        23.12449
329.30        22.92813
329.75         22.7262
330.20        22.51321
330.66        22.29633
331.11        22.09054
331.56        21.89301
332.01        21.70717
332.46        21.53083
332.92        21.36524
333.37        21.24024
333.82        21.15132
334.27        21.09821
334.72        21.06361
335.17        21.01856
335.63        20.94472
336.08         20.8543
336.53        20.76884
336.98         20.7356
337.43        20.76046
337.88        20.83232
338.34        20.88368
338.79        20.81569
339.24        20.60625
339.69        20.28833
340.14        19.96584
340.59        19.80344
341.05         19.8269
341.50        19.98788
341.95        20.17603
342.40        20.21156
342.85        20.05391
343.30        19.77641
343.75        19.45926
344.20        19.22316
344.66        19.11214
345.11        19.07635
345.56        19.11998
346.01         19.2465
346.46         19.4318
346.91        19.66433
347.36        19.86919
347.81         19.9334
348.26        19.83768
348.72         19.6199
349.17        19.32974
349.62        19.09144
350.07        18.93869
350.52        18.83678
350.97         18.7586
351.42        18.65207
351.87        18.51141
352.32        18.38379
352.77        18.25895
353.22        18.11548
353.67        17.95766
354.13        17.77839
354.58        17.65215
355.03        17.72653
355.48        18.00882
355.93        18.45765
356.38        18.88293
356.83        18.96545
357.28        18.65251
357.73        18.06217
358.18         17.4442
358.63        17.17129
359.08        17.31635
359.53        17.75146
359.98        18.29754
360.43        18.64509
360.88        18.68988
361.33        18.53744
361.78        18.26064
362.23        17.96318
362.68        17.69402
363.13        17.41553
363.58        17.17178
364.03        17.04766
364.48        17.05024
364.93         17.1582
365.38        17.29367
365.83        17.32348
366.28        17.21403
366.73        17.00378
367.18        16.73375
367.63        16.47901
368.08        16.27623
368.53        16.10956
368.98         15.9869
369.43        15.91962
369.88        15.89847
370.33        15.91427
370.78        15.94598
371.23        15.95156
371.68         15.9132
372.13         15.8423
372.58        15.72327
373.03        15.53432
373.48        15.28346
373.93        14.98231
374.38        14.69771
374.83        14.54224
375.28        14.53897
375.72        14.65064
376.17        14.80078
376.62        14.86762
377.07        14.81862
377.52        14.68967
377.97        14.51849
378.42        14.36663
378.87        14.25713
379.32        14.17089
379.77        14.10359
380.22        14.05105
380.67         14.0085
381.11        13.98227
381.56        13.96538
382.01        13.94653
382.46        13.92264
382.91        13.89578
383.36        13.85952
383.81        13.80808
384.26        13.73932
384.71        13.64805
385.15        13.55027
385.60        13.48747
386.05        13.46041
386.50        13.46662
386.95        13.46325
387.40        13.38298
387.85        13.22516
388.29        13.00742
388.74        12.82524
389.19        12.76647
389.64        12.83972
390.09        12.99914
390.54        13.17675
390.98         13.2628
391.43        13.22967
391.88        13.12338
392.33        12.97179
392.78        12.81913
393.23        12.68627
393.67        12.53949
394.12        12.42256
394.57        12.41085
395.02         12.4883
395.47         12.5578
395.91        12.59369
396.36        12.61541
396.81         12.6191
397.26         12.5765
397.71        12.50268
398.15        12.45402
398.60         12.4536
399.05        12.42573
399.50        12.38826
399.95        12.46065
400.39        12.59972
400.84        12.58025
401.29        12.39524
401.74        12.23492
402.18        12.11291
402.63        11.91484
403.08        11.69053
403.53        11.56935
403.97        11.56513
404.42        11.64249
404.87        11.74632
405.32        11.78602
405.76        11.73493
406.21          11.625
406.66        11.49781
407.11        11.42122
407.55        11.41678
408.00        11.46385
408.45        11.52734
408.90        11.53275
409.34        11.46935
409.79        11.38452
410.24        11.31212
410.68        11.27146
411.13         11.2734
411.58        11.32111
412.03        11.37487
412.47        11.36116
412.92        11.26534
413.37        11.11291
413.81        10.96403
414.26        10.91721
414.71        10.98468
415.15         11.1428
415.60         11.3125
416.05        11.37516
416.49        11.29877
416.94        11.11903
417.39        10.91564
417.83        10.81509
418.28        10.84837
418.73        10.97518
419.17        11.12371
419.62        11.17222
420.07        11.09847
420.51        10.94437
420.96        10.78415
421.41        10.70957
421.85        10.73704
422.30        10.83299
422.74        10.95274
423.19        11.04283
423.64        11.08182
424.08        11.09133
424.53        11.06183
424.98        10.99729
425.42        10.90988
425.87        10.80985
426.31        10.70888
426.76        10.63782
427.21        10.59898
427.65        10.58079
428.10        10.60645
428.54        10.70836
428.99        10.87568
429.44         11.1045
429.88        11.29321
430.33        11.29819
430.77        11.11021
431.22        10.79327
431.66        10.46402
432.11        10.32709
432.56        10.38898
433.00        10.56742
433.45        10.73276
433.89        10.62574
434.34        10.24481
434.78        10.28393
435.23        10.77702
435.67        10.96422
436.12         10.8371
436.57        10.79716
437.01        10.86402
437.46        10.86233
437.90        10.79151
438.35        10.71949
438.79        10.65345
439.24        10.57623
439.68        10.51241
440.13        10.53942
440.57        10.62297
441.02        10.65965
441.46        10.63951
441.91        10.54642
442.35        10.42518
442.80        10.52228
443.24         10.7575
443.69        10.70458
444.13        10.41055
444.58        10.31422
445.02        10.42436
445.47        10.50874
445.91        10.53961
446.36        10.58324
446.80        10.63011
447.24        10.66063
447.69        10.67728
448.13        10.68748
448.58        10.69223
449.02        10.68793
449.47        10.67638
449.91        10.65135
450.36        10.61834
450.80         10.5823
451.25        10.54541
451.69        10.50231
452.13        10.45551
452.58          10.407
453.02         10.3694
453.47        10.37053
453.91        10.41075
454.36        10.48443
454.80        10.55682
455.24        10.56907
455.69        10.51334
456.13        10.39989
456.58        10.28567
457.02        10.24247
457.46        10.28678
457.91        10.39573
458.35        10.50849
458.79        10.51213
459.24        10.39661
459.68        10.22777
460.13        10.09266
460.57        9.911736
461.01         9.99574
461.46        10.09065
461.90        10.23568
462.34        10.30598
462.79         10.3328
463.23        10.29061
463.68        10.22841
464.12        10.19958
464.56        10.21964
465.01        10.28197
465.45        10.33404
465.89        10.31575
466.34        10.22499
466.78        10.07921
467.22        9.933645
467.67        9.899959
468.11        9.957986
468.55        10.11201
468.99         10.2921
469.44        10.41011
469.88        10.44435
470.32        10.41668
470.77        10.35785
471.21        10.31439
471.65        10.30431
472.10        10.31283
472.54        10.32883
472.98        10.34361
473.42        10.35501
473.87        10.37693
474.31         10.4021
474.75        10.42787
475.20        10.45707
475.64        10.48069
476.08        10.50731
476.52        10.57836
476.97        10.69941
477.41        10.80783
477.85        10.85791
478.29         11.0867
478.74        11.01003
479.18        11.00281
479.62         10.9561
480.06        10.99162
480.50        11.12268
480.95        11.10682
481.39        11.29291
481.83        11.31827
482.27        11.29445
482.72        11.24523
483.16        11.19148
483.60        11.19105
484.04        11.24037
484.48        11.28349
484.93        11.39901
485.37        11.65353
485.81        11.87039
486.25        12.36986
486.69        11.46159
487.14        11.25638
487.58        12.02041
488.02        11.98687
488.46        11.90666
488.90        12.13232
489.34        11.91891
489.79        11.93558
490.23        12.34475
490.67        12.61674
491.11        12.80503
491.55         12.7626
491.99        12.57188
492.43        12.54448
492.88        12.71121
493.32        12.86851
493.76        12.98313
494.20        13.11589
494.64        13.26271
495.08         13.3942
495.52        13.50658
495.96        13.64627
496.41        13.80099
496.85        13.84271
497.29        13.81686
497.73        13.98336
498.17        14.30923
498.61        14.46119
499.05        14.43355
499.49        14.49296
499.93        14.64497
500.37        14.73069
500.82        14.76276
501.26        14.83345
501.70        14.95104
502.14        15.09197
502.58        15.22698
503.02        15.31011
503.46        15.33513
503.90        15.32063
504.34        15.30995
504.78         15.3707
505.22        15.51606
505.66        15.72138
506.10        15.93697
506.54        16.08134
506.98         16.1306
507.42         16.1093
507.86         16.0518
508.30        16.01158
508.74        16.00851
509.18        16.03126
509.62        16.06954
510.06        16.10634
510.50        16.13698
510.94        16.16912
511.38        16.21449
511.82        16.28879
512.26        16.38919
512.70        16.50139
513.14        16.60086
513.58        16.65221
514.02        16.64879
514.46        16.60593
514.90        16.53922
515.34        16.47513
515.78        16.42647
516.22        16.38659
516.66        16.36896
517.10        16.39234
517.54        16.45561
517.98        16.55526
518.42        16.65576
518.86        16.69668
519.30        16.66609
519.74        16.58045
520.18        16.48293
520.62        16.44432
521.06        16.47917
521.50         16.5624
521.93        16.65808
522.37         16.7029
522.81        16.68169
523.25        16.61815
523.69        16.53079
524.13        16.44697
524.57        16.37971
525.01        16.32014
525.45        16.27608
525.89        16.26161
526.32        16.27428
526.76        16.30656
527.20         16.3388
527.64        16.33637
528.08        16.29179
528.52        16.21904
528.96        16.12721
529.40        16.03196
529.83         15.9399
530.27        15.84946
530.71        15.77675
531.15        15.75142
531.59        15.77329
532.03        15.83137
532.46        15.88478
532.90        15.86907
533.34        15.77486
533.78        15.61467
534.22        15.43253
534.66        15.32123
535.09        15.28375
535.53        15.24802
535.97        15.20872
536.41        15.21245
536.85        15.25397
537.28        15.30336
537.72        15.35141
538.16        15.39903
538.60        15.44122
539.04         15.4739
539.47        15.49788
539.91        15.52716
540.35        15.56181
540.79        15.60758
541.22        15.66466
541.66        15.70831
542.10        15.77899
542.54        15.84567
542.97        15.92329
543.41         16.0258
543.85        16.15043
544.29        16.29431
544.72         16.4423
545.16        16.57876
545.60        16.69767
546.04        16.79986
546.47        16.90094
546.91        17.03047
547.35        17.19167
547.79        17.37063
548.22        17.53053
548.66        17.65374
549.10        17.73877
549.53         17.7165
549.97        17.78491
550.41        17.89453
550.84         18.1027
551.28        18.38437
551.72        18.69031
552.15        18.92159
552.59         19.0626
553.03        19.16522
553.46         19.2412
553.90        19.32093
554.34        19.41855
554.77         19.4958
555.21         19.5419
555.65        19.75391
556.08        19.75877
556.52        19.86718
556.96        19.96684
557.39         20.0771
557.83        20.20098
558.27        20.30269
558.70        20.37869
559.14        20.52364
559.57        20.55248
560.01        20.65048
560.45        20.72822
560.88        20.71593
561.32           20.66
561.75        20.58301
562.19        20.55366
562.63        20.76475
563.06        21.12852
563.50        21.19613
563.93        20.99677
564.37        20.99267
564.80        21.18766
565.24        21.32393
565.68        21.38819
566.11        21.48671
566.55         21.6264
566.98        21.76858
567.42        21.92108
567.85         22.0826
568.29        22.25875
568.72        22.42541
569.16        22.58874
569.60        22.73689
570.03        22.86033
570.47         22.9214
570.90        23.09304
571.34        23.07387
571.77        23.19294
572.21        23.23357
572.64        23.30758
573.08        23.38183
573.51        23.95548
573.95        23.99145
574.38        23.87168
574.82        24.29399
