SpectraSmart Spectrum 2.9.0.0
--------- Device Information -----------
Spectrum Name :  反射率_0
Saving Time :  2024/05/01 16:43:56
Spectro-Module Model Name : SE2030-DUVN
Spectro-Module Serial Number : OS361AC55029948
Wavelength Start : 200
Wavelength End : 1025
Wavelength Unit : Wavelength(nm)
Spectrum Unit : Reflectance(%)
-----------Spectrum Setting ------------
Integration Time : 20ms
Average : 10
Boxcar : 0
Background removal :  enabled
linearity correction :  enabled
SC :  disabled
Intensity correction :  disabled
DWT denoise :  enabled
savitzky-golay :  disabled
FFT :  disabled
Running average :  disabled
Kalman :  disabled
High pass :  disabled
---------------BEGIN--------------------
Wavelength(nm)             Reflectance(%)
200.29               0
200.75          224.31
201.21        762.5055
201.67       -262.2581
202.13       -81.79691
202.58       -30.02565
203.04       -2.556495
203.50        12.18788
203.96        15.28839
204.42         6.22615
204.88       -34.73945
205.34       -1132.394
205.80        199.5016
206.26        135.8528
206.72        114.5801
207.18        103.6702
207.64        92.28756
208.10        84.88013
208.55        78.20332
209.01        70.90382
209.47        63.71074
209.93        56.00092
210.39        45.54171
210.85        33.20773
211.31        17.89198
211.77       -20.72918
212.23        245.0944
212.69        86.52312
213.14        93.52711
213.60         173.148
214.06       -750.6432
214.52       -112.0198
214.98       -68.13387
215.44       -54.42473
215.90       -48.06842
216.36       -40.66078
216.81       -54.84248
217.27       -77.93971
217.73        72.23956
218.19       -15.61115
218.65       -30.92039
219.11       -47.62927
219.57       -88.23325
220.02       -208.1887
220.48        -52.5437
220.94          10.089
221.40        22.51223
221.86        28.42383
222.32        35.96964
222.77        47.65734
223.23         66.0182
223.69        89.01091
224.15        98.13551
224.61        87.31126
225.06        69.92252
225.52        58.30215
225.98        56.84652
226.44        64.38905
226.90        80.41776
227.36        101.8862
227.81        112.5841
228.27         105.968
228.73        92.35404
229.19        81.33714
229.65        78.34737
230.10        82.56409
230.56        92.11926
231.02        104.5249
231.48        111.6038
231.93        109.2977
232.39        102.5587
232.85        94.66158
233.31        88.28092
233.77        83.93961
234.22        80.52847
234.68        78.63765
235.14        79.19704
235.60        82.40907
236.05        89.23783
236.51        99.17652
236.97        107.5489
237.43        109.2988
237.88        103.4648
238.34        93.64664
238.80        86.95906
239.26        85.05331
239.71        87.72525
240.17        92.85426
240.63          91.123
241.08        76.68623
241.54        56.77262
242.00        41.19374
242.46        34.62111
242.91        36.67679
243.37        47.06413
243.83        69.22567
244.28        92.33058
244.74        95.63572
245.20        87.38538
245.66        77.61248
246.11        69.26884
246.57        60.60447
247.03          47.474
247.48        25.30619
247.94       -3.904727
248.40       -28.20658
248.85       -41.75907
249.31       -39.29337
249.77       -24.41545
250.22       -6.187032
250.68        10.72525
251.14        22.96771
251.59         29.0888
252.05        30.54445
252.51        27.52479
252.96        17.10204
253.42        9.226113
253.88        27.97273
254.33        49.94265
254.79        60.37861
255.25        65.33961
255.70         67.9669
256.16        70.00745
256.62        70.92429
257.07        70.21024
257.53        69.08573
257.99        67.81341
258.44        66.81568
258.90        66.96627
259.35        67.73184
259.81        69.08167
260.27        70.32069
260.72        70.58708
261.18        70.18794
261.63        69.22514
262.09        68.39557
262.55        67.97652
263.00        67.83496
263.46        67.92437
263.91        67.90913
264.37        67.80793
264.83        67.51094
265.28        67.08612
265.74        66.60127
266.19        65.78548
266.65        64.79306
267.11        63.59826
267.56        62.50021
268.02        62.08899
268.47        62.37382
268.93        63.13488
269.38        63.89164
269.84        63.81779
270.30        62.75698
270.75           60.98
271.21        58.95204
271.66        57.22779
272.12        56.05352
272.57        55.19064
273.03        54.58065
273.48        54.04815
273.94        53.55333
274.39        53.09863
274.85        52.65947
275.31        52.06519
275.76        51.28316
276.22        50.44047
276.67        49.53106
277.13        48.73176
277.58        47.98877
278.04        47.30376
278.49        46.65962
278.95        46.19519
279.40        45.82588
279.86        45.56436
280.31        45.18322
280.77        44.51173
281.22        43.47913
281.68        42.27644
282.13        41.00698
282.59        39.94382
283.04        39.10061
283.50         38.4599
283.95        37.95939
284.41        37.58805
284.86        37.28899
285.32        37.07797
285.77        36.90171
286.22         36.7402
286.68        36.56775
287.13        36.35025
287.59        36.03884
288.04        35.52608
288.50        34.86368
288.95         34.0724
289.41         33.3321
289.86        32.78836
290.32        32.49726
290.77        32.38673
291.22        32.35547
291.68        32.23327
292.13        31.97065
292.59         31.6447
293.04        31.31205
293.50        31.12033
293.95        31.07982
294.40        31.14493
294.86        31.25529
295.31        31.33427
295.77        31.35139
296.22        31.32584
296.68        31.27246
297.13        31.18723
297.58         31.0925
298.04        31.01193
298.49        30.94435
298.95        30.93217
299.40        30.96782
299.85        31.03473
300.31        31.16387
300.76        31.39245
301.21        31.70685
301.67        32.09082
302.12          32.406
302.58        32.46999
303.03        32.24665
303.48        31.83396
303.94        31.42254
304.39        31.22576
304.84        31.30545
305.30        31.57176
305.75        31.90738
306.20         32.1496
306.66        32.24781
307.11        32.23384
307.57         32.1359
308.02        31.94305
308.47        31.68592
308.93        31.37185
309.38        31.02905
309.83        30.75756
310.29        30.58407
310.74        30.48317
311.19        30.41916
311.65        30.31474
312.10        30.14824
312.55        29.95181
313.00        29.75846
313.46        29.61906
313.91        29.53838
314.36         29.4855
314.82        29.44446
315.27        29.40709
315.72        29.35288
316.18        29.28673
316.63        29.16607
317.08        28.92947
317.53        28.57615
317.99        28.13774
318.44        27.67699
318.89        27.31659
319.35        27.09719
319.80        26.98801
320.25        26.95409
320.70        26.92799
321.16        26.87584
321.61         26.8197
322.06        26.74884
322.51        26.65086
322.97        26.51895
323.42        26.35658
323.87        26.17308
324.32         26.0022
324.78        25.84991
325.23        25.72146
325.68        25.60296
326.13        25.47423
326.59        25.32316
327.04        25.17014
327.49        25.01309
327.94        24.85716
328.39        24.70516
328.85         24.5465
329.30        24.39878
329.75        24.26675
330.20        24.15186
330.66        24.04711
331.11        23.95196
331.56        23.83713
332.01        23.70034
332.46        23.55429
332.92        23.40867
333.37        23.30743
333.82        23.25551
334.27        23.24994
334.72        23.29058
335.17        23.37611
335.63        23.48565
336.08        23.61714
336.53        23.75235
336.98        23.87847
337.43        23.98558
337.88        24.07758
338.34        24.10788
338.79        24.02032
339.24        23.80875
339.69        23.49557
340.14        23.19025
340.59        23.06377
341.05        23.14227
341.50        23.38512
341.95        23.66179
342.40        23.75502
342.85        23.61886
343.30        23.33469
343.75        23.01892
344.20        22.85215
344.66        22.88555
345.11         23.0447
345.56        23.28531
346.01        23.53133
346.46         23.7374
346.91        23.91956
347.36        24.03841
347.81        24.03514
348.26        23.91063
348.72        23.69062
349.17        23.42231
349.62        23.22493
350.07        23.12989
350.52        23.10967
350.97        23.12752
351.42        23.11343
351.87        23.05062
352.32        22.97485
352.77        22.88684
353.22        22.78739
353.67        22.68054
354.13        22.55635
354.58        22.44844
355.03         22.4448
355.48        22.55264
355.93        22.75902
356.38        22.94708
356.83           22.92
357.28        22.65089
357.73        22.21047
358.18        21.77999
358.63        21.62944
359.08        21.80115
359.53        22.19924
359.98        22.65371
360.43        22.87373
360.88        22.77693
361.33        22.46749
361.78        22.05606
362.23        21.70398
362.68        21.46518
363.13        21.28367
363.58        21.16117
364.03        21.10846
364.48        21.10768
364.93        21.15559
365.38        21.19131
365.83        21.10952
366.28        20.89235
366.73        20.57638
367.18        20.20901
367.63         19.8792
368.08        19.62658
368.53        19.42823
368.98        19.30012
369.43        19.26153
369.88        19.29789
370.33        19.39999
370.78        19.49652
371.23        19.46041
371.68        19.26228
372.13        18.94178
372.58        18.57686
373.03        18.28707
373.48        18.10671
373.93        18.00626
374.38        17.95913
374.83         17.9193
375.28        17.86733
375.72        17.81452
376.17        17.76378
376.62        17.71436
377.07        17.66119
377.52        17.59379
377.97        17.50051
378.42        17.36812
378.87        17.20321
379.32        17.02575
379.77        16.85244
380.22        16.70556
380.67        16.59346
381.11         16.5074
381.56        16.46327
382.01        16.49062
382.46        16.58232
382.91        16.72252
383.36        16.84124
383.81        16.83415
384.26        16.68269
384.71        16.41559
385.15        16.11058
385.60        15.91062
386.05        15.84499
386.50        15.88011
386.95        15.94407
387.40        15.92332
387.85        15.79878
388.29        15.60158
388.74        15.42828
389.19        15.36021
389.64        15.40919
390.09        15.53011
390.54         15.6647
390.98        15.72252
391.43        15.68242
391.88        15.58135
392.33        15.44633
392.78        15.32066
393.23        15.22035
393.67        15.10739
394.12         15.0106
394.57        14.98545
395.02        15.01022
395.47         14.9805
395.91        14.90468
396.36        14.87127
396.81        14.88955
397.26        14.90652
397.71        14.90847
398.15        14.91212
398.60        14.93172
399.05        14.89472
399.50        14.83588
399.95        14.91663
400.39         15.0918
400.84        15.08338
401.29        14.88401
401.74        14.72585
402.18        14.62347
402.63        14.43626
403.08        14.21244
403.53        14.09005
403.97        14.08178
404.42        14.15052
404.87        14.24038
405.32        14.25931
405.76        14.18343
406.21        14.05106
406.66        13.90627
407.11        13.82088
407.55        13.81717
408.00         13.8675
408.45        13.94667
408.90        13.99199
409.34        13.99017
409.79        13.99029
410.24        13.98646
410.68        13.93401
411.13        13.83889
411.58        13.72512
412.03        13.61267
412.47        13.53352
412.92         13.4988
413.37        13.49944
413.81        13.52806
414.26        13.58458
414.71        13.65536
415.15        13.74474
415.60        13.81195
416.05        13.80579
416.49        13.71746
416.94         13.5628
417.39        13.39391
417.83        13.29561
418.28         13.2888
418.73        13.34814
419.17        13.43343
419.62        13.46953
420.07        13.44173
420.51        13.37462
420.96        13.30094
421.41        13.24856
421.85        13.22343
422.30        13.21665
422.74        13.22957
423.19        13.27974
423.64        13.36026
424.08        13.47295
424.53        13.56619
424.98        13.57252
425.42        13.48094
425.87        13.31997
426.31        13.13989
426.76        13.03104
427.21        13.01081
427.65        13.05052
428.10        13.13831
428.54        13.24952
428.99        13.36609
429.44        13.51112
429.88        13.61912
430.33        13.59676
430.77        13.44115
431.22        13.19996
431.66        12.95895
432.11        12.87413
432.56        12.92726
433.00         13.0425
433.45        13.10713
433.89        12.89659
434.34        12.43806
434.78        12.53828
435.23        13.21714
435.67        13.50823
436.12         13.3819
436.57         13.3491
437.01         13.4304
437.46        13.39885
437.90        13.25795
438.35        13.09441
438.79        12.94171
439.24        12.81792
439.68        12.75936
440.13        12.84937
440.57        13.02275
441.02        13.11246
441.46        13.09249
441.91        12.95423
442.35        12.76927
442.80        12.86082
443.24        13.13608
443.69        13.06859
444.13        12.70681
444.58        12.57212
445.02        12.67341
445.47        12.73386
445.91        12.73697
446.36        12.78717
446.80         12.8762
447.24        12.97238
447.69        13.05659
448.13        13.10253
448.58        13.10367
449.02        13.06433
449.47        13.00857
449.91        12.96403
450.36        12.94424
450.80        12.94316
451.25        12.94164
451.69        12.89909
452.13        12.81256
452.58        12.69888
453.02        12.59359
453.47         12.5604
453.91        12.60799
454.36        12.71873
454.80         12.8416
455.24        12.89261
455.69        12.85636
456.13        12.75036
456.58        12.63751
457.02        12.59572
457.46        12.64469
457.91        12.75725
458.35        12.87478
458.79        12.88607
459.24        12.78077
459.68        12.63085
460.13         12.5197
460.57        12.31442
461.01        12.39362
461.46         12.4555
461.90         12.5695
462.34        12.61753
462.79        12.64919
463.23        12.62566
463.68         12.5928
464.12        12.59239
464.56        12.63521
465.01        12.71991
465.45        12.79319
465.89         12.8003
466.34        12.73905
466.78        12.62183
467.22        12.49828
467.67        12.47558
468.11        12.52084
468.55        12.65164
468.99        12.79773
469.44        12.87511
469.88        12.86574
470.32        12.79159
470.77        12.69219
471.21        12.62825
471.65         12.6194
472.10        12.64741
472.54        12.68563
472.98        12.70183
473.42        12.68806
473.87        12.66369
474.31         12.6339
474.75        12.61878
475.20        12.62566
475.64         12.6366
476.08        12.64573
476.52         12.6769
476.97        12.73422
477.41        12.75602
477.85        12.70938
478.29        12.90106
478.74        12.77439
479.18        12.75504
479.62        12.70975
480.06        12.76779
480.50        12.93792
480.95        12.94313
481.39         13.1749
481.83        13.18943
482.27        13.11386
482.72        12.97895
483.16        12.83691
483.60        12.79063
484.04        12.83714
484.48        12.92481
484.93        13.11559
485.37         13.3479
485.81        13.43178
486.25        14.00978
486.69        13.07951
487.14        12.73121
487.58        13.18511
488.02        13.23304
488.46        13.37436
488.90        13.52624
489.34        13.35852
489.79        13.20561
490.23        13.50357
490.67        13.67846
491.11        13.82444
491.55        13.77716
491.99        13.58959
492.43        13.54023
492.88        13.64992
493.32        13.73299
493.76        13.78016
494.20        13.88133
494.64        14.03682
495.08        14.20627
495.52        14.35356
495.96        14.47543
496.41        14.54931
496.85         14.4615
497.29         14.2958
497.73        14.37316
498.17        14.67019
498.61        14.82659
499.05        14.82061
499.49        14.89899
499.93        15.05626
500.37         15.1389
500.82        15.15001
501.26        15.16874
501.70        15.20455
502.14        15.23582
502.58        15.26189
503.02        15.28332
503.46        15.30243
503.90        15.32648
504.34        15.36434
504.78        15.42502
505.22        15.50815
505.66        15.60747
506.10        15.70879
506.54        15.78928
506.98        15.84101
507.42        15.86942
507.86        15.87941
508.30        15.87983
508.74        15.87663
509.18        15.86957
509.62        15.86624
510.06        15.87881
510.50        15.91009
510.94         15.9577
511.38        16.01338
511.82         16.0623
512.26         16.0978
512.70        16.11981
513.14        16.13013
513.58        16.13357
514.02        16.13169
514.46        16.12414
514.90        16.10671
515.34        16.07293
515.78        16.02555
516.22        15.97164
516.66        15.92603
517.10        15.90972
517.54        15.92677
517.98        15.96989
518.42        16.02665
518.86        16.07557
519.30        16.10818
519.74        16.12826
520.18        16.13678
520.62        16.13721
521.06        16.13102
521.50        16.11443
521.93         16.0927
522.37        16.07149
522.81         16.0543
523.25        16.04213
523.69        16.02715
524.13        15.99483
524.57        15.94565
525.01        15.88742
525.45        15.83459
525.89        15.80981
526.32        15.81615
526.76        15.84031
527.20        15.87233
527.64        15.89562
528.08        15.90287
528.52        15.90154
528.96        15.88108
529.40        15.82558
529.83        15.73586
530.27        15.62169
530.71        15.51513
531.15        15.47156
531.59        15.49919
532.03        15.57897
532.46        15.66724
532.90        15.69418
533.34        15.64574
533.78        15.53577
534.22        15.39905
534.66        15.31489
535.09        15.28332
535.53        15.23259
535.97        15.16998
536.41        15.16249
536.85        15.21064
537.28         15.2836
537.72        15.35376
538.16         15.3925
538.60        15.39063
539.04        15.35137
539.47        15.30998
539.91        15.33275
540.35        15.42548
540.79        15.57598
541.22        15.73318
541.66        15.79045
542.10        15.77429
542.54        15.68367
542.97        15.59002
543.41        15.59562
543.85        15.71773
544.29        15.92139
544.72        16.15267
545.16         16.3357
545.60         16.4457
546.04        16.50449
546.47        16.53643
546.91        16.58482
547.35        16.66352
547.79        16.75393
548.22        16.83359
548.66        16.90662
549.10        16.97232
549.53        16.95868
549.97        17.03769
550.41        17.13098
550.84        17.28548
551.28        17.48716
551.72        17.69997
552.15        17.84826
552.59        17.92611
553.03        17.97957
553.46        18.02143
553.90        18.08286
554.34        18.17512
554.77        18.25931
555.21        18.32114
555.65        18.53806
556.08        18.55519
556.52        18.66382
556.96        18.75196
557.39        18.82854
557.83        18.89798
558.27        18.93279
558.70        18.94314
559.14         19.0394
559.57        19.05482
560.01        19.15173
560.45        19.24135
560.88         19.2492
561.32        19.21167
561.75         19.1523
562.19         19.1214
562.63         19.2774
563.06        19.53776
563.50        19.49612
563.93         19.2105
564.37        19.14799
564.80        19.31937
565.24         19.4769
565.68        19.58643
566.11        19.70953
566.55        19.84102
566.98        19.95428
567.42        20.06654
567.85        20.19186
568.29         20.3382
568.72        20.48397
569.16        20.64097
569.60        20.74879
570.03        20.79007
570.47        20.85032
570.90        21.12005
571.34         20.8341
571.77        21.14618
572.21        21.18317
572.64        21.30489
573.08        21.35374
573.51        21.73941
573.95        21.97569
574.38        21.66476
574.82        21.86801
