SpectraSmart Spectrum 2.9.0.0
--------- Device Information -----------
Spectrum Name :  反射率_0
Saving Time :  2024/05/01 17:18:35
Spectro-Module Model Name : SE2030-DUVN
Spectro-Module Serial Number : OS361AC55029948
Wavelength Start : 200
Wavelength End : 1025
Wavelength Unit : Wavelength(nm)
Spectrum Unit : Reflectance(%)
-----------Spectrum Setting ------------
Integration Time : 20ms
Average : 10
Boxcar : 0
Background removal :  enabled
linearity correction :  enabled
SC :  disabled
Intensity correction :  disabled
DWT denoise :  enabled
savitzky-golay :  disabled
FFT :  disabled
Running average :  disabled
Kalman :  disabled
High pass :  disabled
---------------BEGIN--------------------
Wavelength(nm)             Reflectance(%)
200.29               0
200.75        194.8152
201.21        867.2451
201.67       -376.8624
202.13        -142.829
202.58       -67.84593
203.04       -23.96012
203.50        1.842307
203.96        9.890544
204.42       0.4635559
204.88       -50.70182
205.34        -1438.94
205.80         239.808
206.26        151.6237
206.72        106.5566
207.18        13.47711
207.64        188.5768
208.10        94.81705
208.55        56.29362
209.01        31.21969
209.47        20.15093
209.93        18.49341
210.39        20.36013
210.85        20.44133
211.31        6.901219
211.77       -64.36068
212.23        527.0211
212.69        177.2317
213.14        173.5897
213.60        270.6638
214.06       -919.4222
214.52       -101.1352
214.98       -47.77039
215.44       -36.11708
215.90       -45.25057
216.36       -300.2424
216.81        93.56954
217.27        107.2205
217.73       -230.1599
218.19        -57.2438
218.65       -54.67019
219.11       -81.95251
219.57       -177.4257
220.02       -556.9175
220.48       -270.6339
220.94       -69.68642
221.40       -19.06652
221.86      -0.6349155
222.32         8.36727
222.77        15.24177
223.23        22.97783
223.69         32.4527
224.15        39.17887
224.61        39.73789
225.06        36.72148
225.52         34.5116
225.98        35.25648
226.44        39.01161
226.90        45.83897
227.36        54.44933
227.81        58.16542
228.27        54.64085
228.73        48.37735
229.19        43.42647
229.65        41.94949
230.10        43.56581
230.56         47.7155
231.02        53.39826
231.48        57.15484
231.93         57.0894
232.39        55.05923
232.85        52.64727
233.31        51.33061
233.77        51.22314
234.22        51.67791
234.68        52.50913
235.14         53.7148
235.60        55.37814
236.05         57.9805
236.51         61.5792
236.97        65.22482
237.43        67.42641
237.88        67.48566
238.34        65.68454
238.80        63.82446
239.26         62.2463
239.71        60.64083
240.17        57.57222
240.63        50.82587
241.08        41.52501
241.54        33.74234
242.00        29.98443
242.46        30.37328
242.91        35.13642
243.37         45.2816
243.83        64.81952
244.28        87.23061
244.74        93.89961
245.20          89.155
245.66        81.57548
246.11        74.13856
246.57        65.66646
247.03        52.71288
247.48        30.95519
247.94        2.540062
248.40       -20.50076
248.85       -33.08708
249.31       -29.00652
249.77       -10.83663
250.22        11.10089
250.68        31.23197
251.14         45.4962
251.59        52.21437
252.05        52.64311
252.51        45.47639
252.96        23.10289
253.42       -9.555756
253.88       -4.757936
254.33        26.71122
254.79        45.55675
255.25        51.68024
255.70        52.25631
256.16        51.80585
256.62        51.64669
257.07        52.49532
257.53         54.3076
257.99        56.16119
258.44        57.55732
258.90        58.58259
259.35        59.03107
259.81        59.36566
260.27        59.55081
260.72        59.57786
261.18         59.6865
261.63        59.52686
262.09        59.31245
262.55        58.88716
263.00        58.17804
263.46        57.43061
263.91        56.50501
264.37        55.55553
264.83        54.57425
265.28        53.58434
265.74        52.74052
266.19        51.97799
266.65        51.39494
267.11         50.8755
267.56        50.49017
268.02        50.45259
268.47        50.69474
268.93        51.11227
269.38        51.36831
269.84        50.87976
270.30        49.58991
270.75        47.70508
271.21        45.69868
271.66        44.15395
272.12        43.28056
272.57        42.83564
273.03        42.65257
273.48        42.39095
273.94        41.97417
274.39        41.48593
274.85        40.95037
275.31         40.3106
275.76        39.57016
276.22        38.78074
276.67        38.00201
277.13        37.46223
277.58        37.11031
278.04        36.92855
278.49        36.74176
278.95        36.41346
279.40        35.86153
279.86        35.20095
280.31        34.47758
280.77         33.8675
281.22        33.34561
281.68        32.92577
282.13        32.49414
282.59        31.99683
283.04        31.39056
283.50        30.75697
283.95        30.15715
284.41        29.74865
284.86        29.53674
285.32        29.48034
285.77        29.48426
286.22        29.45728
286.68        29.37278
287.13        29.24235
287.59        29.07576
288.04        28.84873
288.50         28.6006
288.95        28.28914
289.41         28.0147
289.86        27.83931
290.32        27.79392
290.77        27.84925
291.22        27.90488
291.68        27.79329
292.13        27.49439
292.59         27.0979
293.04        26.74028
293.50        26.68893
293.95         26.9716
294.40         27.4998
294.86        28.12597
295.31        28.62699
295.77        28.92835
296.22        29.09428
296.68        29.17051
297.13        29.21061
297.58        29.26234
298.04        29.32544
298.49        29.43029
298.95        29.66952
299.40        30.03076
299.85         30.4789
300.31        30.97097
300.76        31.43306
301.21        31.83536
301.67        32.19819
302.12        32.45361
302.58        32.53253
303.03        32.42681
303.48        32.19777
303.94        31.98976
304.39        31.95029
304.84        32.12888
305.30        32.46272
305.75        32.85899
306.20        33.18895
306.66          33.409
307.11         33.5322
307.57        33.57141
308.02        33.49575
308.47        33.32961
308.93        33.08589
309.38        32.79734
309.83          32.571
310.29        32.43781
310.74        32.37329
311.19        32.33787
311.65         32.2483
312.10        32.08376
312.55        31.87902
313.00        31.68532
313.46        31.58109
313.91        31.57321
314.36        31.62096
314.82        31.67585
315.27         31.6769
315.72        31.59253
316.18        31.44619
316.63        31.22929
317.08        30.93392
317.53        30.57277
317.99        30.16172
318.44        29.74158
318.89        29.39839
319.35         29.1599
319.80        29.00491
320.25        28.91414
320.70        28.84311
321.16        28.76567
321.61        28.70217
322.06        28.62151
322.51        28.47965
322.97        28.26496
323.42        27.98856
323.87        27.70422
324.32        27.51889
324.78        27.44871
325.23        27.47387
325.68        27.50669
326.13        27.40899
326.59        27.14162
327.04        26.76043
327.49        26.33533
327.94        25.99655
328.39         25.7853
328.85        25.65486
329.30        25.57496
329.75        25.46362
330.20        25.29284
330.66        25.08698
331.11        24.86677
331.56        24.63356
332.01        24.40064
332.46        24.16735
332.92        23.95137
333.37        23.81472
333.82        23.76214
334.27        23.78757
334.72        23.86846
335.17        23.96161
335.63        24.03171
336.08         24.0835
336.53        24.11566
336.98        24.14564
337.43        24.17404
337.88        24.20027
338.34        24.16836
338.79        24.00596
339.24        23.70767
339.69        23.30812
340.14        22.93859
340.59        22.80013
341.05        22.92427
341.50        23.25851
341.95        23.64736
342.40        23.83469
342.85        23.75868
343.30        23.50289
343.75        23.19755
344.20        23.04827
344.66        23.11093
345.11        23.30372
345.56        23.55926
346.01        23.76546
346.46        23.87581
346.91        23.92589
347.36        23.91688
347.81        23.84819
348.26        23.73196
348.72        23.57451
349.17        23.38824
349.62        23.23663
350.07        23.13268
350.52        23.06156
350.97        23.00557
351.42        22.92687
351.87        22.82026
352.32        22.71479
352.77        22.59759
353.22         22.4488
353.67        22.27264
354.13        22.07123
354.58        21.90323
355.03        21.89255
355.48        22.04972
355.93        22.34428
356.38        22.63167
356.83        22.66859
357.28        22.41384
357.73        21.95525
358.18        21.48485
358.63        21.28853
359.08        21.41987
359.53        21.78046
359.98        22.21899
360.43        22.47681
360.88        22.47107
361.33        22.28775
361.78        22.00842
362.23        21.75109
362.68        21.55825
363.13        21.38906
363.58        21.24458
364.03        21.13678
364.48        21.05922
364.93        21.01233
365.38        20.97204
365.83        20.89038
366.28        20.75554
366.73        20.58413
367.18        20.37881
367.63        20.14928
368.08        19.91555
368.53        19.68503
368.98        19.49547
369.43        19.40208
369.88        19.40324
370.33        19.46783
370.78        19.55192
371.23        19.57696
371.68        19.51151
372.13        19.38215
372.58        19.18003
373.03        18.88982
373.48        18.52982
373.93        18.11687
374.38        17.73824
374.83        17.54016
375.28        17.55301
375.72        17.72577
376.17         17.9674
376.62        18.13099
377.07        18.16833
377.52        18.11336
377.97        17.98769
378.42        17.83112
378.87        17.66621
379.32        17.48381
379.77        17.30116
380.22        17.14732
380.67        17.03063
381.11        16.95545
381.56        16.91492
382.01          16.894
382.46        16.88774
382.91        16.90012
383.36        16.91823
383.81        16.92701
384.26        16.91562
384.71        16.86834
385.15        16.80015
385.60        16.75611
386.05         16.7353
386.50        16.73901
386.95        16.70479
387.40        16.53626
387.85        16.23974
388.29        15.85049
388.74        15.51954
389.19        15.40543
389.64        15.52518
390.09        15.80739
390.54        16.12844
390.98        16.28757
391.43        16.23538
391.88        16.04347
392.33        15.78304
392.78        15.56101
393.23        15.41228
393.67        15.28104
394.12        15.18296
394.57        15.15571
395.02        15.17204
395.47         15.1332
395.91        15.06006
396.36        15.05887
396.81        15.13596
397.26        15.22351
397.71        15.27984
398.15        15.28326
398.60        15.24599
399.05         15.1154
399.50        14.95165
399.95        14.94823
400.39        15.06784
400.84        15.02414
401.29        14.81611
401.74        14.68234
402.18        14.63402
402.63        14.52729
403.08        14.38498
403.53        14.30713
403.97         14.2984
404.42        14.32975
404.87        14.36529
405.32        14.34834
405.76        14.26384
406.21        14.13854
406.66        14.00594
407.11        13.91971
407.55        13.89833
408.00         13.9263
408.45        13.97956
408.90        13.99604
409.34        13.96682
409.79        13.93778
410.24        13.92053
410.68        13.89833
411.13        13.87681
411.58        13.86978
412.03         13.8598
412.47        13.81231
412.92        13.72302
413.37        13.60689
413.81        13.49929
414.26          13.463
414.71        13.50187
415.15        13.60427
415.60        13.71166
416.05        13.74149
416.49        13.67199
416.94        13.52695
417.39        13.36542
417.83        13.28193
418.28        13.29884
418.73        13.38533
419.17        13.48777
419.62        13.51288
420.07        13.44579
420.51        13.32031
420.96        13.19303
421.41        13.12755
421.85        13.13449
422.30         13.1901
422.74         13.2723
423.19        13.36339
423.64        13.44767
424.08        13.53859
424.53        13.59352
424.98        13.56177
425.42        13.44121
425.87        13.25515
426.31        13.05954
426.76        12.95381
427.21        12.95463
427.65         13.0313
428.10        13.15822
428.54        13.28564
428.99        13.39085
429.44        13.50658
429.88        13.57889
430.33        13.53145
430.77        13.36559
431.22        13.12138
431.66        12.88409
432.11        12.81143
432.56        12.88267
433.00        13.01677
433.45        13.08858
433.89         12.8631
434.34        12.36316
434.78        12.38047
435.23        12.94677
435.67        13.16093
436.12        13.00926
436.57        12.96822
437.01        13.05509
437.46         13.0502
437.90        12.95175
438.35        12.84399
438.79        12.74457
439.24        12.64792
439.68        12.58371
440.13        12.63739
440.57        12.76548
441.02        12.82642
441.46        12.80019
441.91        12.71165
442.35        12.59838
442.80        12.64441
443.24        12.79505
443.69        12.75642
444.13         12.5521
444.58        12.47759
445.02        12.53558
445.47        12.56947
445.91        12.57619
446.36        12.62616
446.80        12.71361
447.24        12.81476
447.69         12.9029
448.13        12.93916
448.58        12.91657
449.02        12.84632
449.47        12.75823
449.91        12.69006
450.36        12.65816
450.80        12.64984
451.25        12.65218
451.69        12.63491
452.13        12.59263
452.58        12.53873
453.02        12.48344
453.47        12.45086
453.91        12.44464
454.36        12.46015
454.80        12.48298
455.24        12.48775
455.69        12.47179
456.13        12.43458
456.58        12.40451
457.02        12.40684
457.46        12.44895
457.91        12.52075
458.35        12.58788
458.79        12.57762
459.24         12.4883
459.68        12.37556
460.13         12.3052
460.57        12.12353
461.01        12.19808
461.46        12.24168
461.90        12.33144
462.34        12.36429
462.79         12.3929
463.23        12.37256
463.68        12.34765
464.12        12.35874
464.56         12.4139
465.01        12.51297
465.45        12.59477
465.89        12.59199
466.34        12.50268
466.78        12.34377
467.22        12.17962
467.67        12.14319
468.11        12.20939
468.55        12.38582
468.99        12.58787
469.44        12.70772
469.88        12.72025
470.32        12.65453
470.77        12.55403
471.21        12.48698
471.65        12.47614
472.10        12.49854
472.54        12.53317
472.98        12.55696
473.42        12.56308
473.87        12.57146
474.31        12.57346
474.75        12.56658
475.20        12.55582
475.64        12.52961
476.08        12.50534
476.52        12.54354
476.97        12.65346
477.41        12.76015
477.85        12.79991
478.29        13.03449
478.74        12.89173
479.18         12.8193
479.62        12.70722
480.06        12.72311
480.50        12.88819
480.95         12.9152
481.39        13.18491
481.83        13.24112
482.27         13.2025
482.72        13.10065
483.16         12.9894
483.60        12.96368
484.04        13.02162
484.48        13.14543
484.93        13.37957
485.37        13.58195
485.81        13.58735
486.25        14.17612
486.69        13.34391
487.14        13.07572
487.58        13.59066
488.02        13.95625
488.46        13.71665
488.90        13.68618
489.34        13.71502
489.79        13.72652
490.23        13.96412
490.67        14.19291
491.11        14.41991
491.55         14.4133
491.99        14.22679
492.43         14.1879
492.88        14.32271
493.32        14.42462
493.76        14.48037
494.20        14.58207
494.64        14.73151
495.08        14.88792
495.52        15.03119
495.96        15.18536
496.41        15.32926
496.85        15.33234
497.29        15.25068
497.73        15.37797
498.17        15.68047
498.61        15.78847
499.05         15.7097
499.49        15.75446
499.93        15.92988
500.37        16.05909
500.82        16.13119
501.26        16.20646
501.70        16.28556
502.14        16.35443
502.58        16.41037
503.02        16.45028
503.46        16.47746
503.90        16.49678
504.34        16.52973
504.78        16.60765
505.22        16.73412
505.66        16.89858
506.10        17.06528
506.54        17.17447
506.98        17.21125
507.42        17.19299
507.86        17.15268
508.30        17.14312
508.74        17.17977
509.18        17.24813
509.62         17.3299
510.06        17.39461
510.50        17.43182
510.94        17.45136
511.38        17.46399
511.82        17.48501
512.26        17.51791
512.70        17.55582
513.14        17.58731
513.58         17.5969
514.02        17.58208
514.46        17.54909
514.90        17.51271
515.34        17.49569
515.78        17.50402
516.22        17.53242
516.66        17.56626
517.10        17.58181
517.54        17.57394
517.98        17.54972
518.42        17.52446
518.86        17.52302
519.30        17.54996
519.74         17.5943
520.18        17.63853
520.62        17.65699
521.06         17.6421
521.50        17.60088
521.93         17.5463
522.37        17.49429
522.81         17.4553
523.25        17.42994
523.69        17.41035
524.13        17.38313
524.57        17.34812
525.01        17.30961
525.45        17.28849
525.89        17.31718
526.32        17.39549
526.76        17.50442
527.20        17.60726
527.64         17.6452
528.08        17.60577
528.52        17.51307
528.96        17.39219
529.40        17.28311
529.83        17.19955
530.27        17.13302
530.71        17.09339
531.15        17.10017
531.59        17.14896
532.03        17.23255
532.46        17.30737
532.90        17.30441
533.34        17.21418
533.78        17.04848
534.22        16.85769
534.66        16.74805
535.09        16.72292
535.53        16.70124
535.97        16.67314
536.41        16.68285
536.85         16.7234
537.28         16.7653
537.72        16.80033
538.16        16.83228
538.60        16.85794
539.04        16.87207
539.47        16.88049
539.91        16.90577
540.35         16.9478
540.79        17.01021
541.22        17.08391
541.66        17.12652
542.10        17.18016
542.54        17.21799
542.97        17.26456
543.41        17.34867
543.85        17.46994
544.29        17.61654
544.72         17.7733
545.16        17.92525
545.60        18.06329
546.04        18.19097
546.47        18.30453
546.91        18.40235
547.35        18.48704
547.79        18.55589
548.22        18.61083
548.66          18.695
549.10        18.81484
549.53        18.87495
549.97        19.04078
550.41        19.18599
550.84        19.35261
551.28        19.53817
551.72        19.72377
552.15        19.85844
552.59        19.94583
553.03        20.02741
553.46        20.10354
553.90        20.18829
554.34        20.28846
554.77        20.36681
555.21        20.41889
555.65        20.65928
556.08        20.69584
556.52        20.84803
556.96        20.97514
557.39        21.06458
557.83        21.11831
558.27         21.1127
558.70        21.08169
559.14        21.18393
559.57        21.24076
560.01        21.42136
560.45        21.59941
560.88        21.64859
561.32        21.60246
561.75        21.50303
562.19        21.43307
562.63           21.61
563.06        21.94929
563.50        21.97638
563.93        21.73378
564.37        21.71847
564.80        21.93407
565.24        22.10982
565.68        22.20812
566.11        22.30033
566.55        22.38737
566.98        22.44231
567.42        22.50081
567.85         22.6036
568.29        22.76737
568.72         22.9565
569.16        23.15844
569.60        23.32846
570.03        23.44876
570.47        23.49597
570.90        23.66416
571.34        23.63915
571.77         23.8081
572.21        23.90019
572.64        24.02563
573.08        24.12144
573.51        24.69487
573.95        24.68364
574.38        24.50684
574.82        24.87698
