SpectraSmart Spectrum 2.9.0.0
--------- Device Information -----------
Spectrum Name :  反射率_0
Saving Time :  2024/05/01 16:46:41
Spectro-Module Model Name : SE2030-DUVN
Spectro-Module Serial Number : OS361AC55029948
Wavelength Start : 200
Wavelength End : 1025
Wavelength Unit : Wavelength(nm)
Spectrum Unit : Reflectance(%)
-----------Spectrum Setting ------------
Integration Time : 20ms
Average : 10
Boxcar : 0
Background removal :  enabled
linearity correction :  enabled
SC :  disabled
Intensity correction :  disabled
DWT denoise :  enabled
savitzky-golay :  disabled
FFT :  disabled
Running average :  disabled
Kalman :  disabled
High pass :  disabled
---------------BEGIN--------------------
Wavelength(nm)             Reflectance(%)
200.29               0
200.75        301.0851
201.21        1178.131
201.67       -466.9266
202.13       -173.4769
202.58       -88.18481
203.04       -42.04189
203.50       -16.03351
203.96       -7.721599
204.42       -16.09446
204.88       -63.82203
205.34        -1394.72
205.80        225.5631
206.26        154.0571
206.72        143.9084
207.18        216.9841
207.64       -53.98787
208.10        23.71325
208.55        36.68592
209.01        37.95451
209.47        34.27727
209.93        27.30865
210.39        15.87295
210.85        1.440691
211.31       -16.64672
211.77       -61.96851
212.23        255.3726
212.69        65.05374
213.14        69.06735
213.60        147.4054
214.06       -773.6348
214.52       -138.9849
214.98       -98.67099
215.44       -92.81284
215.90       -111.9931
216.36       -503.2058
216.81        103.5475
217.27        135.1752
217.73       -424.3998
218.19       -131.8591
218.65       -120.8562
219.11        -150.808
219.57       -266.5347
220.02       -698.9627
220.48       -298.9112
220.94       -71.08883
221.40       -18.10324
221.86      -0.7310742
222.32        5.564694
222.77        7.890595
223.23        8.058792
223.69        6.663057
224.15        5.399569
224.61        5.462764
225.06        6.006574
225.52        6.897559
225.98        8.272634
226.44        10.32096
226.90        13.43671
227.36        17.29313
227.81        19.35979
228.27        18.43384
228.73        16.04278
229.19        13.81389
229.65        12.53734
230.10        12.07747
230.56        12.48994
231.02         13.4297
231.48        14.05486
231.93        14.04793
232.39        13.62582
232.85        13.90115
233.31        16.07496
233.77        19.69538
234.22        24.02515
234.68        27.67393
235.14        29.17098
235.60        28.25526
236.05        24.89404
236.51        19.37377
236.97        14.56623
237.43        13.33836
237.88        15.85586
238.34        19.82196
238.80        21.56462
239.26        19.72361
239.71        14.15197
240.17        4.053094
240.63       -7.526088
241.08       -13.85757
241.54       -13.29933
242.00       -9.231291
242.46       -5.443451
242.91       -1.846113
243.37         2.68275
243.83        13.17254
244.28        34.80564
244.74        53.16662
245.20        60.90039
245.66        61.40018
246.11        57.81704
246.57        50.66971
247.03        37.65536
247.48        14.12028
247.94       -17.60888
248.40       -44.24005
248.85       -60.40392
249.31       -57.58105
249.77       -36.65553
250.22       -10.12326
250.68        14.55149
251.14        31.85054
251.59        38.93921
252.05        36.81188
252.51        22.45035
252.96       -18.33082
253.42         -81.006
253.88       -79.83053
254.33       -24.86109
254.79        11.17495
255.25        26.17439
255.70        31.75901
256.16         34.5114
256.62        36.31312
257.07        38.03221
257.53        39.86311
257.99        41.23717
258.44        42.12532
258.90        42.85458
259.35        43.24663
259.81        43.59725
260.27        43.61884
260.72        42.96335
261.18        41.96398
261.63        40.66781
262.09        39.54801
262.55         38.8363
263.00        38.41965
263.46        38.19795
263.91        37.92052
264.37        37.48503
264.83        36.83989
265.28        36.10148
265.74        35.30461
266.19        34.28949
266.65        33.17789
267.11        31.95557
267.56        30.92023
268.02        30.62116
268.47         31.0748
268.93        32.05796
269.38        33.09972
269.84        33.37096
270.30        32.70527
270.75        31.36073
271.21         29.7629
271.66        28.45539
272.12        27.66327
272.57        27.17136
273.03          26.915
273.48        26.75098
273.94        26.61883
274.39        26.54917
274.85        26.47474
275.31        26.23854
275.76        25.81508
276.22        25.27054
276.67        24.66187
277.13        24.16453
277.58        23.76144
278.04         23.4362
278.49        23.11505
278.95        22.78277
279.40        22.39484
279.86        22.01291
280.31        21.60938
280.77        21.20723
281.22         20.7866
281.68         20.3929
282.13        20.01685
282.59        19.70966
283.04        19.45877
283.50        19.28435
283.95        19.17406
284.41        19.14901
284.86        19.18495
285.32        19.26308
285.77        19.36395
286.22         19.4873
286.68        19.62714
287.13        19.76885
287.59        19.86082
288.04        19.78181
288.50        19.55619
288.95        19.20811
289.41        18.89861
289.86        18.79589
290.32        18.94094
290.77        19.26667
291.22         19.6528
291.68        19.90667
292.13        19.98827
292.59        19.99175
293.04        19.99248
293.50        20.15566
293.95        20.50208
294.40        20.97031
294.86        21.51984
295.31         22.1058
295.77          22.684
296.22        23.25934
296.68        23.76556
297.13        24.09101
297.58        24.24313
298.04        24.28037
298.49        24.30328
298.95        24.50784
299.40        24.92153
299.85        25.48009
300.31        26.11479
300.76        26.72392
301.21        27.26389
301.67        27.76148
302.12        28.16486
302.58         28.4191
303.03        28.50907
303.48        28.47915
303.94        28.42584
304.39         28.4411
304.84        28.57386
305.30        28.79051
305.75        29.06364
306.20        29.36244
306.66        29.66392
307.11        29.95047
307.57        30.18557
308.02        30.26893
308.47        30.20266
308.93        30.02085
309.38        29.77168
309.83        29.58277
310.29        29.49295
310.74        29.46887
311.19        29.47042
311.65         29.4185
312.10         29.2917
312.55        29.12236
313.00         28.9602
313.46        28.87927
313.91        28.88409
314.36         28.9364
314.82        28.97827
315.27        28.93367
315.72        28.77424
316.18         28.5322
316.63         28.2256
317.08        27.88263
317.53        27.52241
317.99        27.15014
318.44        26.78459
318.89        26.47472
319.35        26.23647
319.80        26.05835
320.25        25.93081
320.70        25.82668
321.16        25.72411
321.61        25.63168
322.06        25.51846
322.51        25.34199
322.97        25.09061
323.42         24.7805
323.87         24.4522
324.32        24.18731
324.78        24.00417
325.23        23.89448
325.68        23.80897
326.13        23.66969
326.59         23.4486
327.04        23.17791
327.49        22.88828
327.94        22.64124
328.39        22.45419
328.85        22.30008
329.30        22.15759
329.75           21.97
330.20        21.72284
330.66        21.43092
331.11        21.13291
331.56        20.86638
332.01         20.6488
332.46        20.47391
332.92        20.31852
333.37        20.16912
333.82        20.01074
334.27        19.85125
334.72        19.71547
335.17        19.64638
335.63        19.64099
336.08        19.68995
336.53        19.74475
336.98        19.74041
337.43        19.65904
337.88        19.52206
338.34        19.34529
338.79        19.17022
339.24        19.01235
339.69        18.86111
340.14        18.74036
340.59        18.68697
341.05        18.69138
341.50        18.74468
341.95        18.79339
342.40        18.74764
342.85        18.59501
343.30        18.38171
343.75        18.14741
344.20        17.95378
344.66        17.82878
345.11        17.73801
345.56        17.72619
346.01        17.86045
346.46        18.12463
346.91        18.48096
347.36        18.79302
347.81        18.85557
348.26        18.63928
348.72         18.2244
349.17        17.72821
349.62        17.38032
350.07        17.24506
350.52        17.25237
350.97        17.34319
351.42        17.41291
351.87        17.42303
352.32        17.42352
352.77         17.3853
353.22        17.25912
353.67        17.05135
354.13         16.7708
354.58        16.51093
355.03        16.45011
355.48        16.61382
355.93        16.95807
356.38        17.32699
356.83        17.45285
357.28        17.28081
357.73        16.90299
358.18        16.49852
358.63        16.33717
359.08        16.46888
359.53        16.79181
359.98        17.17525
360.43         17.3967
360.88        17.38748
361.33         17.2388
361.78        16.99912
362.23        16.73335
362.68        16.48085
363.13        16.21419
363.58        16.00809
364.03        15.99267
364.48          16.172
364.93        16.49624
365.38        16.82026
365.83         16.9135
366.28        16.72487
366.73        16.32549
367.18        15.82306
367.63        15.40499
368.08        15.14401
368.53        14.99604
368.98        14.92975
369.43        14.89287
369.88        14.85823
370.33        14.83924
370.78        14.83298
371.23        14.82657
371.68        14.80948
372.13        14.77387
372.58        14.69229
373.03         14.5301
373.48        14.29094
373.93        13.99575
374.38        13.70716
374.83        13.52845
375.28        13.48823
375.72        13.55635
376.17        13.68087
376.62        13.77898
377.07        13.81983
377.52        13.81836
377.97        13.78427
378.42         13.7351
378.87        13.67887
379.32        13.61065
379.77        13.52549
380.22        13.41904
380.67        13.29605
381.11         13.1667
381.56        13.05677
382.01        13.00875
382.46        13.03032
382.91          13.108
383.36        13.19858
383.81        13.23739
384.26        13.20467
384.71        13.10853
385.15        12.98456
385.60        12.90601
386.05        12.88497
386.50        12.91211
386.95        12.93051
387.40        12.85351
387.85        12.67785
388.29        12.42731
388.74        12.22362
389.19        12.19157
389.64        12.34243
390.09        12.61907
390.54         12.9069
390.98        13.02217
391.43        12.92712
391.88        12.69564
392.33        12.41704
392.78        12.22267
393.23        12.14364
393.67        12.11302
394.12        12.12059
394.57        12.16092
395.02        12.20165
395.47        12.17865
395.91         12.1012
396.36        12.04141
396.81        12.01277
397.26        11.96648
397.71        11.91446
398.15        11.90772
398.60        11.95897
399.05        11.99718
399.50        12.01285
399.95        12.08164
400.39        12.15902
400.84        12.04019
401.29        11.75962
401.74        11.56971
402.18        11.50276
402.63        11.42738
403.08        11.35671
403.53        11.36281
403.97        11.43859
404.42        11.55905
404.87        11.67339
405.32        11.69881
405.76         11.6155
406.21        11.45648
406.66         11.2654
407.11        11.11505
407.55        11.03254
408.00        10.99962
408.45        11.00353
408.90        11.00468
409.34        10.99521
409.79        11.00771
410.24        11.03429
410.68        11.03391
411.13        11.00459
411.58         10.9635
412.03        10.90697
412.47        10.82831
412.92        10.73405
413.37         10.6311
413.81        10.54556
414.26         10.5243
414.71        10.56818
415.15        10.66993
415.60        10.78026
416.05        10.82899
416.49        10.79496
416.94        10.69485
417.39        10.57463
417.83        10.50958
418.28        10.51883
418.73        10.58061
419.17        10.65013
419.62        10.64806
420.07        10.56474
420.51        10.42755
420.96         10.2981
421.41        10.24984
421.85         10.2918
422.30        10.39646
422.74        10.51882
423.19        10.60247
423.64        10.62789
424.08        10.61799
424.53        10.56717
424.98        10.48844
425.42        10.39607
425.87        10.29476
426.31         10.2008
426.76        10.15125
427.21        10.14708
427.65        10.17807
428.10        10.24193
428.54        10.32937
428.99        10.42835
429.44        10.55221
429.88         10.6459
430.33        10.63181
430.77        10.50675
431.22        10.30769
431.66        10.10784
432.11         10.0414
432.56        10.09497
433.00        10.20828
433.45        10.27393
433.89        10.08317
434.34        9.658178
434.78        9.642385
435.23        10.07273
435.67        10.25556
436.12        10.18176
436.57        10.22462
437.01        10.37304
437.46        10.40376
437.90        10.30351
438.35         10.1543
438.79        10.00294
439.24        9.896612
439.68        9.870861
440.13        9.975979
440.57        10.14979
441.02        10.24258
441.46        10.22824
441.91        10.10923
442.35        9.946155
442.80        9.995651
443.24        10.18714
443.69        10.11153
444.13        9.813615
444.58        9.706414
445.02        9.798543
445.47        9.876035
445.91         9.91732
446.36        9.988604
446.80         10.0806
447.24        10.17066
447.69        10.25325
448.13        10.32503
448.58        10.38106
449.02        10.41555
449.47        10.43113
449.91        10.42544
450.36        10.40311
450.80        10.36644
451.25        10.31217
451.69         10.2268
452.13        10.11506
452.58        9.988206
453.02        9.869745
453.47        9.802413
453.91        9.793247
454.36        9.833772
454.80        9.892752
455.24        9.915096
455.69        9.889144
456.13        9.821289
456.58        9.752279
457.02        9.730618
457.46        9.767994
457.91        9.847367
458.35        9.920786
458.79        9.898801
459.24        9.776903
459.68        9.610884
460.13        9.480485
460.57        9.306635
461.01        9.380108
461.46        9.466536
461.90        9.598481
462.34        9.650027
462.79        9.650918
463.23        9.579788
463.68        9.497985
464.12        9.480273
464.56        9.543516
465.01        9.670056
465.45        9.789105
465.89        9.815687
466.34        9.742356
466.78        9.592044
467.22        9.431194
467.67        9.389946
468.11        9.456507
468.55        9.629884
468.99        9.827796
469.44        9.941914
469.88        9.947583
470.32        9.872953
470.77        9.771257
471.21        9.724703
471.65        9.756701
472.10        9.838689
472.54        9.927705
472.98        9.965806
473.42        9.941928
473.87        9.888194
474.31        9.825432
474.75        9.794298
475.20        9.807994
475.64        9.841276
476.08         9.89038
476.52         9.97601
476.97        10.09609
477.41        10.20085
477.85        10.24031
478.29        10.42515
478.74        10.30245
479.18        10.22975
479.62        10.12975
480.06        10.15573
480.50        10.32551
480.95        10.39794
481.39        10.67192
481.83        10.76684
482.27        10.77802
482.72        10.73951
483.16        10.67917
483.60        10.67421
484.04        10.73121
484.48        10.76115
484.93        10.84071
485.37        11.10027
485.81        11.35557
486.25        11.71934
486.69        10.91469
487.14          10.638
487.58        11.16038
488.02        11.33621
488.46        11.30588
488.90        11.55506
489.34        11.33168
489.79        11.38105
490.23        11.88598
490.67         12.1938
491.11        12.36184
491.55        12.31942
491.99        12.14729
492.43         12.1148
492.88        12.25341
493.32        12.37891
493.76        12.47162
494.20         12.6062
494.64        12.78055
495.08        12.96011
495.52        13.12216
495.96        13.28092
496.41        13.41743
496.85        13.41724
497.29         13.3427
497.73        13.47327
498.17        13.78414
498.61        13.94473
499.05          13.942
499.49        14.02121
499.93        14.18363
500.37        14.28188
500.82        14.32333
501.26        14.38863
501.70        14.48621
502.14        14.59403
502.58        14.70001
503.02        14.78632
503.46        14.85089
503.90        14.90415
504.34        14.96483
504.78        15.05969
505.22        15.19229
505.66        15.35015
506.10        15.50866
506.54        15.62827
506.98        15.69625
507.42        15.72355
507.86        15.72458
508.30        15.72202
508.74        15.72741
509.18        15.73987
509.62        15.76017
510.06        15.78911
510.50        15.82678
510.94        15.87214
511.38        15.93141
511.82        16.01267
512.26        16.11044
512.70        16.21554
513.14        16.30096
513.58        16.32659
514.02         16.2868
514.46        16.19758
514.90        16.08827
515.34        16.00724
515.78        15.97188
516.22        15.97165
516.66         15.9982
517.10        16.03581
517.54        16.07583
517.98        16.12152
518.42        16.16577
518.86        16.19546
519.30        16.20685
519.74        16.20038
520.18         16.1791
520.62        16.15181
521.06        16.12132
521.50        16.08398
521.93        16.04702
522.37        16.01677
522.81          15.997
523.25        15.99077
523.69        15.98264
524.13        15.94618
524.57         15.8805
525.01        15.79496
525.45        15.71966
525.89        15.70275
526.32        15.74919
526.76        15.83501
527.20        15.92485
527.64        15.96137
528.08        15.92891
528.52        15.85013
528.96        15.73812
529.40        15.61331
529.83         15.4882
530.27        15.36317
530.71        15.26176
531.15        15.22521
531.59        15.25599
532.03        15.33924
532.46        15.43188
532.90        15.46416
533.34        15.42051
533.78        15.31115
534.22        15.16831
534.66        15.06856
535.09        15.01313
535.53        14.93545
535.97        14.84442
536.41         14.8082
536.85        14.82885
537.28         14.8744
537.72        14.92727
538.16        14.97284
538.60        15.00327
539.04         15.0203
539.47        15.03498
539.91        15.07601
540.35         15.1446
540.79        15.23805
541.22        15.34287
541.66        15.41441
542.10        15.48633
542.54        15.53386
542.97        15.58017
543.41         15.6528
543.85        15.75414
544.29        15.87889
544.72        16.01035
545.16        16.12916
545.60        16.23019
546.04        16.31925
546.47        16.41477
546.91         16.5495
547.35        16.72634
547.79        16.92621
548.22        17.11325
548.66        17.27192
549.10        17.39784
549.53        17.42064
549.97         17.5212
550.41        17.62922
550.84        17.79894
551.28        18.01499
551.72        18.24914
552.15        18.43659
552.59        18.57167
553.03        18.69682
553.46        18.81186
553.90        18.92794
554.34        19.05147
554.77        19.14782
555.21        19.20845
555.65        19.43042
556.08          19.447
556.52        19.56177
556.96        19.65891
557.39        19.75044
557.83        19.84119
558.27        19.90196
558.70        19.94274
559.14        20.07684
559.57        20.12704
560.01        20.26607
560.45         20.3955
560.88        20.42955
561.32        20.40717
561.75        20.35517
562.19        20.33908
562.63         20.5465
563.06         20.8926
563.50        20.93494
563.93        20.71442
564.37        20.70576
564.80        20.91488
565.24        21.08029
565.68        21.17801
566.11        21.29564
566.55         21.4346
566.98        21.56248
567.42        21.68804
567.85        21.81144
568.29        21.94154
568.72        22.05795
569.16        22.18219
569.60        22.30368
570.03         22.4125
570.47        22.50904
570.90        22.75958
571.34        22.66438
571.77        22.85606
572.21         22.8761
572.64        22.95073
573.08        23.00228
573.51        23.50015
573.95        23.64161
574.38        23.55274
574.82        23.71017
