SpectraSmart Spectrum 2.9.0.0
--------- Device Information -----------
Spectrum Name :  反射率_0
Saving Time :  2024/05/01 16:52:02
Spectro-Module Model Name : SE2030-DUVN
Spectro-Module Serial Number : OS361AC55029948
Wavelength Start : 200
Wavelength End : 1025
Wavelength Unit : Wavelength(nm)
Spectrum Unit : Reflectance(%)
-----------Spectrum Setting ------------
Integration Time : 20ms
Average : 10
Boxcar : 0
Background removal :  enabled
linearity correction :  enabled
SC :  disabled
Intensity correction :  disabled
DWT denoise :  enabled
savitzky-golay :  disabled
FFT :  disabled
Running average :  disabled
Kalman :  disabled
High pass :  disabled
---------------BEGIN--------------------
Wavelength(nm)             Reflectance(%)
200.29               0
200.75        367.3844
201.21         1405.58
201.67       -551.1432
202.13       -200.2282
202.58       -96.66129
203.04       -40.10772
203.50       -8.152162
203.96         1.99595
204.42       -8.793538
204.88       -69.66118
205.34       -1774.018
205.80        305.4467
206.26        219.9258
206.72        220.9227
207.18        401.4106
207.64       -234.3941
208.10       -50.61704
208.55       -21.19828
209.01       -14.22549
209.47        -10.4676
209.93       -7.274336
210.39       -6.636158
210.85       -11.19565
211.31       -29.99343
211.77       -110.7134
212.23        545.7708
212.69         157.385
213.14        156.0049
213.60        273.8817
214.06       -1153.334
214.52       -172.5456
214.98        -111.809
215.44       -105.6529
215.90       -142.4902
216.36       -846.1499
216.81        238.1147
217.27        286.3224
217.73       -676.3068
218.19       -172.6121
218.65        -149.018
219.11       -190.6897
219.57       -357.4993
220.02       -1022.343
220.48       -496.6798
220.94       -144.5382
221.40       -57.65282
221.86       -27.51474
222.32       -15.15565
222.77       -8.740513
223.23       -4.494164
223.69      -0.8448858
224.15        2.351595
224.61        4.131506
225.06        4.567246
225.52        4.624977
225.98        5.071793
226.44        6.130076
226.90         7.80795
227.36        10.48054
227.81        13.62219
228.27        15.81252
228.73        16.92969
229.19        17.20213
229.65        16.84746
230.10        16.06216
230.56        15.10662
231.02         14.1817
231.48        14.09006
231.93         15.1203
232.39        16.66388
232.85        18.81414
233.31         21.8777
233.77        25.50694
234.22        29.39057
234.68        32.64186
235.14        34.39097
235.60        34.57763
236.05         33.2652
236.51        30.67241
236.97        28.52479
237.43        28.27044
237.88        29.71449
238.34         31.3788
238.80        31.15453
239.26        28.02067
239.71        21.66769
240.17        10.38438
240.63       -5.011356
241.08       -17.90583
241.54       -24.14212
242.00         -24.091
242.46       -20.15739
242.91         -12.332
243.37        1.987087
243.83        28.44864
244.28        58.91309
244.74        69.02618
245.20        63.58752
245.66         53.7043
246.11         43.4162
246.57        31.00191
247.03        11.75443
247.48       -19.28637
247.94       -54.92065
248.40        -77.0788
248.85       -82.10539
249.31       -68.53262
249.77       -44.79245
250.22       -21.42963
250.68       -1.879467
251.14        10.81725
251.59        14.97815
252.05        11.24434
252.51       -4.165563
252.96       -44.20731
253.42       -96.52315
253.88       -76.40612
254.33       -12.71951
254.79        23.69528
255.25        37.59423
255.70         42.1116
256.16        43.76769
256.62        44.97048
257.07        47.02659
257.53        49.87596
257.99        52.56152
258.44        54.64509
258.90        56.24699
259.35        57.17713
259.81        57.88791
260.27        58.25686
260.72        58.13142
261.18        57.81946
261.63        57.15755
262.09        56.44389
262.55        55.61352
263.00        54.62261
263.46        53.64922
263.91        52.65147
264.37        51.88988
264.83        51.30367
265.28        50.83036
265.74         50.4105
266.19        49.69406
266.65        48.76688
267.11        47.65353
267.56        46.61183
268.02        46.14373
268.47        46.26464
268.93        46.76602
269.38        47.27329
269.84         47.1334
270.30        46.22589
270.75        44.77082
271.21        43.11263
271.66        41.64213
272.12         40.5562
272.57        39.67778
273.03        39.02207
273.48         38.5468
273.94        38.23059
274.39        38.05777
274.85        37.91408
275.31        37.54742
275.76        36.91984
276.22        36.15861
276.67        35.36869
277.13        34.82807
277.58        34.50913
278.04        34.35816
278.49        34.23238
278.95          34.043
279.40        33.70296
279.86         33.3076
280.31         32.8208
280.77        32.29799
281.22        31.70887
281.68        31.10579
282.13        30.48539
282.59        29.94191
283.04        29.45915
283.50         29.0786
283.95        28.75312
284.41        28.46578
284.86        28.20087
285.32        27.98354
285.77        27.85667
286.22        27.92356
286.68        28.18183
287.13         28.5632
287.59        28.94331
288.04        29.07751
288.50        28.94683
288.95        28.59221
289.41        28.20283
289.86        27.96695
290.32        27.95799
290.77        28.10571
291.22        28.31276
291.68        28.41841
292.13        28.39225
292.59        28.32989
293.04        28.32236
293.50         28.5584
293.95        29.05149
294.40        29.73273
294.86        30.50583
295.31        31.23353
295.77        31.86001
296.22        32.41678
296.68        32.90996
297.13         33.3325
297.58        33.71882
298.04        34.09107
298.49         34.4952
298.95        35.04739
299.40        35.73722
299.85        36.51583
300.31        37.34255
300.76        38.14498
301.21        38.90041
301.67        39.63789
302.12         40.2683
302.58        40.68938
303.03        40.87624
303.48        40.88989
303.94        40.92355
304.39        41.18535
304.84        41.73988
305.30        42.50821
305.75        43.31876
306.20        43.92345
306.66        44.26582
307.11        44.39946
307.57        44.44452
308.02        44.51341
308.47        44.66247
308.93        44.85213
309.38          45.026
309.83        45.16113
310.29        45.25581
310.74        45.32661
311.19        45.37865
311.65        45.39718
312.10        45.37609
312.55        45.31567
313.00        45.26519
313.46         45.3056
313.91        45.43463
314.36        45.62022
314.82        45.76527
315.27        45.72742
315.72        45.47139
316.18        45.06023
316.63          44.571
317.08        44.13742
317.53        43.79768
317.99        43.51985
318.44        43.27497
318.89        43.02222
319.35        42.75356
319.80        42.49857
320.25        42.26389
320.70        42.04947
321.16        41.84835
321.61        41.65548
322.06        41.48277
322.51        41.36319
322.97        41.28431
323.42        41.24466
323.87        41.17826
324.32        40.99146
324.78        40.66197
325.23        40.23738
325.68        39.77949
326.13         39.3972
326.59        39.11437
327.04        38.92152
327.49        38.77663
327.94        38.61832
328.39        38.42195
328.85        38.19181
329.30        37.96076
329.75        37.73461
330.20        37.51925
330.66        37.29632
331.11        37.07351
331.56         36.8246
332.01        36.55046
332.46        36.26396
332.92        35.97985
333.37        35.75994
333.82        35.60526
334.27         35.5086
334.72        35.44912
335.17        35.39194
335.63        35.30874
336.08        35.21639
336.53         35.1186
336.98        35.04086
337.43        34.98574
337.88         34.9507
338.34        34.87655
338.79         34.6937
339.24        34.38802
339.69        33.98717
340.14        33.60854
340.59        33.43504
341.05        33.48942
341.50        33.71901
341.95        33.97716
342.40        34.02383
342.85        33.80857
343.30        33.42509
343.75        32.99423
344.20        32.70313
344.66        32.60794
345.11        32.63074
345.56        32.75342
346.01        32.94146
346.46        33.15395
346.91        33.39716
347.36        33.57777
347.81        33.55217
348.26        33.30725
348.72        32.89244
349.17        32.41714
349.62        32.10765
350.07        32.01265
350.52        32.05963
350.97        32.14929
351.42        32.10981
351.87        31.90224
352.32        31.61502
352.77        31.27595
353.22        30.92213
353.67        30.58663
354.13        30.25457
354.58        30.01052
355.03        30.02831
355.48        30.31626
355.93         30.8287
356.38        31.34943
356.83        31.51162
357.28        31.23854
357.73        30.64366
358.18         29.9871
358.63        29.66245
359.08        29.74669
359.53        30.11089
359.98        30.54913
360.43        30.71281
360.88         30.5072
361.33        30.06602
361.78        29.53579
362.23        29.12119
362.68        28.88303
363.13         28.7477
363.58        28.67947
364.03        28.63217
364.48        28.57419
364.93        28.51801
365.38        28.44123
365.83        28.29922
366.28        28.08421
366.73         27.8093
367.18        27.48451
367.63        27.13784
368.08        26.79855
368.53        26.47614
368.98        26.21296
369.43         26.0635
369.88        26.02653
370.33        26.07794
370.78        26.16412
371.23        26.18846
371.68        26.11546
372.13        25.96817
372.58        25.76234
373.03        25.52614
373.48        25.27377
373.93        24.99547
374.38        24.72318
374.83        24.51335
375.28        24.38164
375.72        24.32186
376.17         24.2909
376.62         24.2075
377.07        24.05482
377.52        23.85182
377.97         23.6507
378.42        23.53595
378.87        23.51938
379.32        23.56658
379.77        23.61362
380.22        23.56484
380.67        23.40144
381.11        23.16181
381.56        22.89911
382.01        22.70617
382.46        22.61585
382.91        22.60495
383.36        22.63935
383.81        22.66757
384.26         22.6667
384.71        22.63925
385.15         22.5987
385.60        22.58582
386.05        22.59551
386.50        22.61798
386.95        22.59616
387.40        22.44824
387.85        22.17782
388.29        21.81017
388.74        21.48116
389.19        21.31451
389.64        21.32718
390.09        21.46592
390.54         21.6391
390.98         21.6948
391.43        21.60501
391.88        21.42706
392.33        21.21573
392.78        21.05589
393.23        20.97219
393.67        20.90098
394.12        20.86209
394.57        20.90867
395.02        21.00132
395.47        20.99368
395.91        20.90747
396.36        20.88997
396.81        20.95449
397.26         21.0215
397.71        21.04408
398.15        21.00541
398.60        20.92892
399.05        20.73843
399.50        20.53076
399.95        20.59286
400.39        20.87333
400.84        20.96837
401.29        20.82918
401.74        20.71176
402.18        20.61349
402.63        20.35146
403.08        20.01052
403.53        19.81319
403.97        19.78755
404.42        19.87243
404.87        19.98907
405.32        20.01198
405.76         19.9074
406.21        19.72828
406.66        19.53421
407.11        19.41795
407.55        19.40879
408.00        19.47223
408.45        19.56905
408.90        19.60582
409.34        19.56606
409.79        19.52249
410.24        19.48301
410.68         19.4111
411.13        19.31578
411.58        19.21892
412.03        19.12494
412.47        19.03671
412.92        18.95791
413.37        18.89552
413.81        18.85416
414.26        18.85331
414.71        18.88498
415.15        18.94901
415.60        19.00877
416.05        19.02392
416.49        18.98321
416.94        18.89491
417.39         18.7922
417.83        18.72931
418.28        18.71967
418.73        18.74673
419.17        18.78153
419.62        18.77033
420.07        18.70768
420.51        18.61329
420.96        18.52729
421.41        18.48316
421.85        18.48377
422.30        18.52132
422.74        18.58237
423.19        18.66805
423.64        18.76518
424.08        18.87941
424.53        18.96362
424.98        18.96619
425.42        18.88181
425.87        18.73352
426.31        18.56295
426.76        18.44643
427.21        18.39746
427.65        18.38987
428.10        18.42927
428.54        18.51778
428.99         18.6472
429.44         18.8396
429.88         18.9939
430.33        18.97043
430.77        18.76592
431.22        18.45242
431.66        18.15505
432.11        18.11824
432.56        18.32273
433.00        18.57557
433.45        18.71234
433.89         18.5867
434.34        18.13167
434.78         18.1472
435.23        18.73123
435.67        18.93962
436.12          18.789
436.57        18.75866
437.01        18.86697
437.46        18.87898
437.90        18.78822
438.35        18.69033
438.79        18.60426
439.24         18.5097
439.68        18.44873
440.13        18.55593
440.57        18.75714
441.02        18.84841
441.46        18.80562
441.91        18.61357
442.35        18.36929
442.80        18.51519
443.24        18.92173
443.69         18.8627
444.13        18.39509
444.58        18.22597
445.02         18.3662
445.47        18.43605
445.91        18.41958
446.36        18.47482
446.80        18.59369
447.24        18.72812
447.69        18.85499
448.13        18.94003
448.58        18.97357
449.02        18.96067
449.47        18.92165
449.91        18.87409
450.36        18.83258
450.80        18.79175
451.25        18.74405
451.69        18.66385
452.13        18.55291
452.58        18.42596
453.02         18.3071
453.47        18.24372
453.91        18.24101
454.36        18.28963
454.80        18.35128
455.24        18.36304
455.69        18.31565
456.13        18.21725
456.58        18.12144
457.02        18.08525
457.46        18.12488
457.91         18.2197
458.35        18.31886
458.79        18.31577
459.24        18.20391
459.68        18.06678
460.13        17.98955
460.57        17.73719
461.01        17.84115
461.46        17.88234
461.90        17.98232
462.34        18.01116
462.79         18.0507
463.23        18.03618
463.68         18.0103
464.12        17.99853
464.56        18.00993
465.01         18.0583
465.45        18.09674
465.89        18.08842
466.34        18.03508
466.78        17.94512
467.22        17.85537
467.67        17.86053
468.11        17.90038
468.55        18.01435
468.99        18.14707
469.44         18.2494
469.88        18.30832
470.32        18.33355
470.77        18.33034
471.21        18.30552
471.65        18.26678
472.10        18.21758
472.54        18.16776
472.98         18.1435
473.42        18.15212
473.87        18.19652
474.31        18.25663
474.75        18.31804
475.20        18.37791
475.64        18.42831
476.08        18.47537
476.52        18.54902
476.97         18.6537
477.41        18.73885
477.85         18.7697
478.29        18.95711
478.74        18.90425
479.18        18.90462
479.62        18.86886
480.06        18.94504
480.50        19.15014
480.95        19.08736
481.39        19.37237
481.83        19.41871
482.27        19.42291
482.72        19.41211
483.16        19.40763
483.60        19.45516
484.04        19.54516
484.48        19.60713
484.93         19.7598
485.37        20.04236
485.81        20.32653
486.25        20.84201
486.69         20.3318
487.14        19.78908
487.58        20.09399
488.02        20.53243
488.46        20.52896
488.90        20.81274
489.34         20.7811
489.79        20.59645
490.23        21.05342
490.67        21.39803
491.11        21.80534
491.55        21.93627
491.99        21.82438
492.43        21.84222
492.88        22.00429
493.32        22.05619
493.76        22.02986
494.20        22.13305
494.64         22.3883
495.08        22.71244
495.52        23.03953
495.96        23.34484
496.41        23.57581
496.85        23.56015
497.29        23.40179
497.73        23.55038
498.17        23.97538
498.61        24.16444
499.05        24.10564
499.49        24.18575
499.93        24.40852
500.37        24.54692
500.82        24.61623
501.26        24.74578
501.70        24.94186
502.14        25.16719
502.58        25.37393
503.02         25.4908
503.46        25.50711
503.90        25.44898
504.34        25.38618
504.78        25.42817
505.22         25.5996
505.66         25.8687
506.10        26.15524
506.54        26.32551
506.98        26.34582
507.42        26.25845
507.86        26.13877
508.30        26.10335
508.74        26.18365
509.18        26.34553
509.62        26.53543
510.06        26.66547
510.50        26.71052
510.94        26.69958
511.38        26.67632
511.82        26.70836
512.26         26.8091
512.70        26.94791
513.14        27.08463
513.58        27.16015
514.02        27.15981
514.46        27.10827
514.90        27.02833
515.34        26.95523
515.78        26.90578
516.22        26.87168
516.66        26.86005
517.10        26.88104
517.54        26.93254
517.98        27.01258
518.42         27.0999
518.86        27.15698
519.30        27.17281
519.74        27.15294
520.18         27.1142
520.62        27.08703
521.06        27.07801
521.50        27.07608
521.93         27.0692
522.37        27.03235
522.81        26.96492
523.25        26.88159
523.69        26.79174
524.13        26.70727
524.57        26.63489
525.01        26.56995
525.45        26.52206
525.89         26.5068
526.32        26.52095
526.76        26.55459
527.20        26.58172
527.64        26.56022
528.08        26.48346
528.52        26.37106
528.96        26.24265
529.40         26.1296
529.83         26.0407
530.27        25.97067
530.71        25.92859
531.15        25.93508
531.59        25.98488
532.03        26.06776
532.46        26.13611
532.90        26.11942
533.34        26.00843
533.78        25.81101
534.22        25.58159
534.66        25.44725
535.09        25.40484
535.53        25.34036
535.97        25.25421
536.41        25.23678
536.85        25.28454
537.28         25.3463
537.72        25.40179
538.16        25.44237
538.60        25.46195
539.04        25.46119
539.47         25.4594
539.91        25.50438
540.35        25.59852
540.79        25.73918
541.22        25.90519
541.66          26.023
542.10        26.14856
542.54        26.23945
542.97        26.32834
543.41        26.45037
543.85        26.60745
544.29        26.78924
544.72        26.97653
545.16        27.15492
545.60        27.31479
546.04        27.45872
546.47        27.59905
546.91         27.7591
547.35        27.94286
547.79        28.13622
548.22        28.30173
548.66         28.4448
549.10        28.56624
549.53        28.54204
549.97        28.66641
550.41        28.82293
550.84        29.09514
551.28        29.45687
551.72        29.84384
552.15        30.12077
552.59        30.27351
553.03        30.37808
553.46        30.45598
553.90        30.56033
554.34         30.7085
554.77        30.83348
555.21        30.90485
555.65        31.21227
556.08        31.16135
556.52        31.25403
556.96        31.31606
557.39        31.38115
557.83        31.46274
558.27        31.50951
558.70        31.53875
559.14        31.73289
559.57        31.80962
560.01        32.03764
560.45        32.25353
560.88         32.3063
561.32        32.25266
561.75         32.1451
562.19        32.08924
562.63        32.36555
563.06        32.84995
563.50        32.88418
563.93        32.53045
564.37        32.49392
564.80        32.78194
565.24        33.00627
565.68        33.12988
566.11        33.27963
566.55        33.45726
566.98        33.61256
567.42         33.7611
567.85         33.9012
568.29        34.05012
568.72        34.18202
569.16        34.32814
569.60        34.46205
570.03          34.563
570.47        34.64215
570.90         34.9828
571.34        34.75522
571.77        35.04272
572.21          35.132
572.64         35.3554
573.08        35.28585
573.51        35.65015
573.95        35.96503
574.38        35.76949
574.82        36.00145
