SpectraSmart Spectrum 2.9.0.0
--------- Device Information -----------
Spectrum Name :  反射率_0
Saving Time :  2024/05/01 16:52:49
Spectro-Module Model Name : SE2030-DUVN
Spectro-Module Serial Number : OS361AC55029948
Wavelength Start : 200
Wavelength End : 1025
Wavelength Unit : Wavelength(nm)
Spectrum Unit : Reflectance(%)
-----------Spectrum Setting ------------
Integration Time : 20ms
Average : 10
Boxcar : 0
Background removal :  enabled
linearity correction :  enabled
SC :  disabled
Intensity correction :  disabled
DWT denoise :  enabled
savitzky-golay :  disabled
FFT :  disabled
Running average :  disabled
Kalman :  disabled
High pass :  disabled
---------------BEGIN--------------------
Wavelength(nm)             Reflectance(%)
200.29               0
200.75        286.1817
201.21        1131.649
201.67        -450.068
202.13       -163.0742
202.58       -76.68317
203.04       -28.94194
203.50      -0.9632071
203.96        10.68543
204.42        9.112462
204.88       -16.87211
205.34       -790.6174
205.80        151.0119
206.26        107.1105
206.72        97.30216
207.18        116.8132
207.64        37.30366
208.10        60.27036
208.55        64.80798
209.01        64.38304
209.47        60.26222
209.93        52.90104
210.39        41.46695
210.85        27.01571
211.31        7.600365
211.77       -44.75682
212.23        332.0815
212.69        107.8814
213.14        114.6318
213.60        213.8191
214.06       -945.2055
214.52       -145.3396
214.98       -92.67496
215.44       -80.60863
215.90        -88.4476
216.36       -313.0895
216.81        22.34121
217.27        -2.70712
217.73       -51.78718
218.19       -37.86197
218.65       -46.72227
219.11       -68.89748
219.57       -139.9948
220.02       -420.5874
220.48       -210.3703
220.94       -62.16817
221.40       -23.91729
221.86       -10.02474
222.32       -3.958732
222.77      -0.1698776
223.23        3.130737
223.69        7.700785
224.15         13.9776
224.61        19.22573
225.06        22.21704
225.52        23.96789
225.98        25.65694
226.44        27.87507
226.90        30.69976
227.36        34.15624
227.81        36.67614
228.27        37.09955
228.73        36.49892
229.19          35.612
229.65        34.77042
230.10        33.98663
230.56        33.19352
231.02        32.88853
231.48        34.29087
231.93        37.18056
232.39        40.61628
232.85        43.41576
233.31        44.69219
233.77        44.69597
234.22        43.98375
234.68        43.05513
235.14        42.55803
235.60        42.65064
236.05        43.23075
236.51        44.32227
236.97        45.73957
237.43        46.93113
237.88        47.68182
238.34        47.51754
238.80        46.42322
239.26        44.14979
239.71        40.22314
240.17        32.99242
240.63        21.81641
241.08        10.64334
241.54        3.661272
242.00        2.204663
242.46        5.482423
242.91        14.03673
243.37        30.70397
243.83        61.04187
244.28        92.82996
244.74        99.83537
245.20        90.66312
245.66        79.19258
246.11        70.72594
246.57        63.70231
247.03         53.9994
247.48        37.89283
247.94        15.72266
248.40       -4.391362
248.85       -16.41645
249.31       -16.15693
249.77       -7.073295
250.22        4.610174
250.68        15.48485
251.14        23.67442
251.59        28.71522
252.05        31.85083
252.51        34.33353
252.96        36.12925
253.42        38.09182
253.88        38.08698
254.33        37.03757
254.79        38.04528
255.25        41.07285
255.70        44.82706
256.16          48.725
256.62        52.13393
257.07        54.43359
257.53        56.10303
257.99        57.27409
258.44        57.96449
258.90        58.61571
259.35        58.95537
259.81        59.20444
260.27        59.17899
260.72        58.71265
261.18        58.13049
261.63        57.31853
262.09        56.52933
262.55        55.63313
263.00        54.57232
263.46        53.50735
263.91        52.47034
264.37        51.81776
264.83        51.46865
265.28        51.31846
265.74        51.15652
266.19        50.42461
266.65        49.20802
267.11        47.61411
267.56         46.1053
268.02        45.49855
268.47        45.86473
268.93        46.88605
269.38        47.98147
269.84        48.16242
270.30        47.22229
270.75        45.49385
271.21        43.47526
271.66        41.78515
272.12        40.68624
272.57        39.92783
273.03        39.45191
273.48        39.11153
273.94        38.84882
274.39        38.67603
274.85        38.51934
275.31        38.17646
275.76        37.60862
276.22        36.91833
276.67        36.15056
277.13        35.50436
277.58        34.95868
278.04        34.51271
278.49        34.10641
278.95        33.77698
279.40        33.45765
279.86        33.18165
280.31        32.87127
280.77         32.5217
281.22        32.07763
281.68        31.61881
282.13        31.09283
282.59        30.52526
283.04        29.90714
283.50        29.29879
283.95          28.769
284.41        28.48711
284.86          28.449
285.32        28.59741
285.77        28.82187
286.22        29.00835
286.68        29.12025
287.13        29.17335
287.59         29.1453
288.04        28.96213
288.50        28.66599
288.95        28.24126
289.41        27.85773
289.86        27.67682
290.32        27.74493
290.77        27.99985
291.22        28.29144
291.68        28.37194
292.13        28.20173
292.59        27.90383
293.04        27.63529
293.50        27.69378
293.95         28.1234
294.40        28.82596
294.86        29.66798
295.31        30.45088
295.77        31.09355
296.22        31.63961
296.68        32.10505
297.13         32.4975
297.58        32.85397
298.04         33.1909
298.49        33.53434
298.95        33.97328
299.40        34.50332
299.85        35.09492
300.31        35.75399
300.76          36.476
301.21        37.24442
301.67        38.05952
302.12         38.7872
302.58        39.25129
303.03         39.4076
303.48        39.34442
303.94         39.2705
304.39        39.41742
304.84        39.86322
305.30        40.52472
305.75        41.25147
306.20        41.83054
306.66        42.20317
307.11        42.40246
307.57        42.52015
308.02        42.62768
308.47        42.76689
308.93         42.9136
309.38        43.00063
309.83        42.98904
310.29        42.88781
310.74        42.72557
311.19        42.56696
311.65        42.48818
312.10        42.50164
312.55        42.58573
313.00         42.7198
313.46        42.87059
313.91          43.007
314.36        43.12317
314.82        43.18674
315.27        43.16377
315.72        43.03881
316.18        42.83079
316.63        42.54362
317.08        42.20217
317.53        41.82596
317.99        41.42676
318.44        41.03646
318.89        40.71508
319.35        40.48194
319.80        40.32513
320.25        40.22337
320.70        40.13167
321.16        40.02374
321.61         39.9177
322.06        39.79536
322.51        39.63754
322.97        39.43329
323.42        39.19143
323.87        38.93559
324.32         38.7254
324.78        38.56601
325.23        38.45411
325.68        38.33519
326.13        38.12714
326.59        37.80319
327.04        37.40963
327.49        36.98634
327.94         36.6133
328.39        36.32056
328.85        36.07857
329.30         35.8933
329.75        35.72615
330.20         35.5634
330.66        35.40686
331.11        35.27088
331.56        35.13326
332.01        34.99327
332.46         34.8544
332.92        34.70781
333.37        34.58466
333.82        34.47987
334.27        34.38945
334.72        34.33167
335.17        34.34031
335.63        34.39969
336.08        34.50366
336.53        34.59521
336.98        34.60237
337.43        34.50562
337.88        34.33328
338.34        34.08575
338.79        33.79248
339.24        33.47505
339.69        33.14083
340.14        32.86821
340.59        32.77542
341.05        32.86665
341.50        33.10549
341.95        33.38056
342.40        33.50818
342.85        33.43947
343.30         33.2348
343.75        32.95935
344.20        32.71733
344.66        32.55426
345.11        32.43574
345.56        32.38631
346.01        32.44235
346.46         32.5921
346.91        32.81398
347.36        33.04078
347.81        33.16717
348.26        33.16766
348.72        33.07983
349.17         32.9087
349.62        32.70988
350.07         32.5062
350.52        32.27966
350.97        32.06642
351.42        31.92271
351.87        31.86005
352.32        31.88121
352.77        31.90652
353.22        31.80746
353.67        31.56504
354.13        31.22117
354.58         30.8795
355.03        30.74073
355.48        30.83844
355.93        31.11941
356.38        31.42131
356.83        31.47285
357.28        31.22073
357.73        30.76169
358.18        30.29146
358.63        30.09933
359.08        30.23666
359.53        30.59675
359.98        31.01721
360.43        31.22645
360.88         31.1411
361.33        30.85557
361.78        30.46405
362.23        30.10004
362.68        29.81115
363.13        29.55475
363.58        29.33162
364.03        29.15276
364.48        29.01196
364.93        28.91119
365.38        28.82421
365.83        28.69832
366.28        28.51862
366.73        28.29914
367.18        28.04318
367.63        27.76431
368.08        27.48304
368.53         27.2066
368.98        26.96861
369.43        26.81484
369.88        26.74571
370.33        26.74064
370.78        26.76611
371.23        26.76162
371.68         26.7028
372.13        26.60537
372.58        26.46598
373.03        26.28049
373.48        26.05644
373.93        25.79523
374.38        25.53848
374.83        25.36009
375.28        25.27586
375.72         25.2614
376.17        25.27285
376.62        25.22968
377.07        25.11171
377.52        24.94483
377.97        24.75151
378.42        24.56878
378.87        24.41203
379.32        24.26892
379.77        24.14595
380.22        24.05322
380.67        23.98942
381.11        23.95846
381.56        23.93484
382.01        23.88197
382.46        23.79197
382.91        23.67077
383.36        23.54613
383.81        23.46366
384.26        23.42795
384.71        23.42087
385.15         23.3994
385.60        23.31767
386.05        23.16168
386.50        22.95772
386.95        22.74193
387.40        22.56932
387.85        22.45722
388.29        22.37171
388.74        22.33263
389.19        22.30017
389.64        22.26174
390.09         22.2177
390.54        22.16662
390.98        22.10334
391.43        22.03617
391.88        21.96792
392.33        21.88967
392.78        21.79879
393.23        21.70159
393.67         21.5701
394.12        21.45556
394.57        21.45275
395.02        21.53524
395.47        21.53853
395.91        21.47605
396.36         21.4894
396.81        21.58438
397.26        21.67739
397.71        21.72345
398.15        21.70864
398.60        21.65519
399.05        21.48466
399.50         21.2771
399.95        21.30051
400.39        21.50118
400.84        21.47402
401.29        21.21681
401.74        21.06907
402.18        21.04681
402.63        20.93897
403.08        20.77859
403.53        20.71243
403.97        20.74516
404.42        20.83227
404.87        20.91848
405.32        20.91844
405.76        20.81022
406.21        20.63412
406.66        20.43669
407.11        20.29081
407.55        20.22518
408.00        20.22119
408.45        20.25875
408.90        20.27204
409.34        20.25348
409.79         20.2646
410.24        20.30369
410.68        20.32119
411.13         20.3177
411.58        20.31576
412.03        20.30274
412.47        20.25051
412.92        20.15676
413.37        20.04094
413.81         19.9307
414.26        19.88141
414.71        19.89656
415.15        19.96845
415.60        20.05865
416.05        20.12206
416.49        20.13965
416.94        20.11657
417.39        20.07241
417.83        20.03978
418.28        20.02679
418.73        20.02253
419.17         20.0034
419.62        19.92744
420.07        19.79812
420.51        19.63583
420.96         19.4954
421.41        19.43049
421.85         19.4447
422.30        19.52369
422.74        19.63469
423.19        19.74917
423.64        19.84777
424.08        19.94699
424.53        20.00928
424.98        20.00273
425.42        19.92977
425.87         19.8039
426.31        19.67157
426.76        19.61798
427.21         19.6545
427.65        19.75222
428.10        19.88986
428.54        20.02743
428.99        20.15206
429.44        20.29093
429.88        20.37569
430.33        20.34524
430.77        20.18835
431.22        19.89429
431.66        19.58801
432.11        19.57069
432.56        19.81513
433.00        20.09179
433.45        20.21087
433.89        20.00252
434.34        19.41582
434.78        19.34144
435.23        19.90134
435.67        20.11258
436.12        19.99928
436.57        20.06646
437.01        20.30538
437.46        20.40177
437.90        20.32814
438.35         20.2073
438.79        20.07002
439.24        19.91213
439.68        19.78967
440.13        19.83947
440.57        20.00155
441.02        20.09483
441.46        20.09718
441.91        19.97609
442.35        19.79729
442.80        19.99775
443.24        20.42493
443.69        20.27916
444.13        19.67304
444.58        19.46799
445.02        19.68694
445.47        19.87647
445.91        19.97732
446.36        20.10526
446.80        20.23444
447.24        20.33521
447.69        20.39526
448.13        20.39539
448.58        20.34134
449.02         20.2386
449.47        20.13342
449.91         20.0831
450.36        20.10645
450.80        20.18307
451.25        20.27398
451.69        20.30128
452.13        20.24861
452.58        20.14058
453.02        20.00917
453.47        19.91825
453.91         19.8817
454.36        19.88878
454.80          19.906
455.24        19.87924
455.69        19.80497
456.13        19.69347
456.58        19.60346
457.02        19.59481
457.46         19.6804
457.91         19.8332
458.35         19.9904
458.79        20.02476
459.24        19.92426
459.68         19.7835
460.13        19.69232
460.57         19.3906
461.01        19.46286
461.46        19.45497
461.90        19.51607
462.34        19.53225
462.79        19.59764
463.23        19.63386
463.68         19.6694
464.12        19.70043
464.56        19.72732
465.01        19.77607
465.45        19.80343
465.89        19.78222
466.34        19.71804
466.78        19.61352
467.22        19.51417
467.67        19.53296
468.11        19.60485
468.55        19.77292
468.99        19.95847
469.44        20.07776
469.88        20.11209
470.32        20.08001
470.77        20.01639
471.21        19.97866
471.65        19.98387
472.10        20.01747
472.54        20.05488
472.98        20.06967
473.42        20.05799
473.87        20.04322
474.31        20.02825
474.75        20.03587
475.20        20.07556
475.64        20.12298
476.08        20.17209
476.52         20.2661
476.97        20.41019
477.41        20.49577
477.85        20.46463
478.29        20.80383
478.74        20.61432
479.18        20.59253
479.62        20.51494
480.06        20.57492
480.50        20.79201
480.95        20.73225
481.39        21.05851
481.83        21.11572
482.27        21.11403
482.72        21.08546
483.16        21.05747
483.60        21.09112
484.04        21.17518
484.48        21.22872
484.93        21.38808
485.37        21.70953
485.81         22.0209
486.25         22.6736
486.69        21.86382
487.14        21.32798
487.58        21.92014
488.02        22.15397
488.46        22.31158
488.90        22.43839
489.34         22.5507
489.79        22.34894
490.23        22.79779
490.67        23.03419
491.11        23.29835
491.55        23.44713
491.99        23.49584
492.43        23.60239
492.88        23.76133
493.32        23.85162
493.76        23.88599
494.20           23.98
494.64        24.15315
495.08        24.34721
495.52        24.53748
495.96        24.77281
496.41        25.01784
496.85        25.06671
497.29        24.98648
497.73        25.19546
498.17        25.64096
498.61        25.78077
499.05        25.63911
499.49         25.6942
499.93         25.9622
500.37        26.17667
500.82        26.31647
501.26        26.46549
501.70         26.6181
502.14        26.75512
502.58        26.86544
503.02        26.93262
503.46        26.96143
503.90        26.96428
504.34        26.98265
504.78        27.07971
505.22        27.26613
505.66        27.52052
506.10        27.78956
506.54         27.9833
506.98        28.07489
507.42        28.08903
507.86        28.06123
508.30        28.04876
508.74        28.07263
509.18        28.11952
509.62        28.18048
510.06        28.24081
510.50        28.29602
510.94        28.35408
511.38        28.42179
511.82         28.5066
512.26        28.60442
512.70        28.70289
513.14        28.78646
513.58        28.83409
514.02        28.84163
514.46        28.82037
514.90        28.77472
515.34        28.71227
515.78        28.64366
516.22         28.5717
516.66        28.52136
517.10        28.52967
517.54        28.59881
517.98         28.7143
518.42         28.8397
518.86        28.91264
519.30        28.91667
519.74        28.87142
520.18        28.79647
520.62        28.72638
521.06        28.67273
521.50        28.61906
521.93        28.57833
522.37        28.56615
522.81        28.58334
523.25        28.63117
523.69         28.6651
524.13        28.61175
524.57        28.46552
525.01        28.25304
525.45        28.04616
525.89        27.95869
526.32        28.01144
526.76        28.16259
527.20        28.34407
527.64        28.44459
528.08        28.43242
528.52        28.34638
528.96        28.21833
529.40        28.09859
529.83        28.00386
530.27        27.92089
530.71        27.85967
531.15        27.84599
531.59        27.87728
532.03        27.94697
532.46        28.00903
532.90        27.99295
533.34        27.88839
533.78        27.69985
534.22        27.48077
534.66        27.35966
535.09        27.33133
535.53        27.27756
535.97        27.19478
536.41        27.17491
536.85        27.21509
537.28        27.25921
537.72        27.30293
538.16        27.36542
538.60        27.44061
539.04        27.51649
539.47        27.58196
539.91        27.63942
540.35        27.68357
540.79        27.73113
541.22        27.78737
541.66        27.81938
542.10        27.90197
542.54        27.97553
542.97        28.06975
543.41        28.21247
543.85        28.39872
544.29        28.62238
544.72        28.84685
545.16        29.03031
545.60        29.16002
546.04         29.2455
546.47         29.3267
546.91        29.47421
547.35        29.70132
547.79        29.97635
548.22         30.2317
548.66        30.43221
549.10        30.56708
549.53        30.51427
549.97        30.60111
550.41        30.72497
550.84         30.9823
551.28        31.33844
551.72        31.71832
552.15        31.96791
552.59        32.07336
553.03        32.12629
553.46        32.15914
553.90        32.23948
554.34        32.38912
554.77        32.53188
555.21         32.6346
555.65        33.00211
556.08        32.99897
556.52        33.15042
556.96        33.26013
557.39        33.34338
557.83        33.41211
558.27        33.43026
558.70        33.42133
559.14        33.56551
559.57        33.58092
560.01        33.79884
560.45        34.04769
560.88        34.11909
561.32         34.0677
561.75        33.99232
562.19         33.9782
562.63        34.23698
563.06        34.64608
563.50        34.59703
563.93        34.18321
564.37        34.12229
564.80        34.42971
565.24        34.72661
565.68         34.9373
566.11        35.12751
566.55        35.29083
566.98        35.36752
567.42         35.4203
567.85        35.58305
568.29        35.85778
568.72         36.0257
569.16        36.22289
569.60        36.34392
570.03        36.38181
570.47        36.52361
570.90        36.73691
571.34        36.45897
571.77        36.70998
572.21        36.94138
572.64        37.13869
573.08         37.1058
573.51         37.5067
573.95        37.86319
574.38        37.56187
574.82        37.87757
