SpectraSmart Spectrum 2.9.0.0
--------- Device Information -----------
Spectrum Name :  反射率_0
Saving Time :  2024/05/03 20:36:40
Spectro-Module Model Name : SE2030-DUVN
Spectro-Module Serial Number : OS361AC55029948
Wavelength Start : 200
Wavelength End : 1025
Wavelength Unit : Wavelength(nm)
Spectrum Unit : Reflectance(%)
-----------Spectrum Setting ------------
Integration Time : 20ms
Average : 10
Boxcar : 0
Background removal :  enabled
linearity correction :  enabled
SC :  disabled
Intensity correction :  disabled
DWT denoise :  enabled
savitzky-golay :  disabled
FFT :  disabled
Running average :  disabled
Kalman :  disabled
High pass :  disabled
---------------BEGIN--------------------
Wavelength(nm)             Reflectance(%)
200.29               0
200.75        15.80421
201.21        74.98076
201.67       -3611.046
202.13       -142.2758
202.58       -73.11481
203.04        -39.0947
203.50       -16.63037
203.96       -2.121477
204.42        9.430709
204.88        32.11563
205.34       -661.9789
205.80       -68.28179
206.26       -85.00847
206.72        -20667.7
207.18        70.67063
207.64        41.91002
208.10        36.78047
208.55        48.52163
209.01        192.1444
209.47        254.6533
209.93        52.74671
210.39        32.52391
210.85        29.01197
211.31        33.03949
211.77        44.49419
212.23        72.76946
212.69        146.1761
213.14        204.5656
213.60        115.4239
214.06         53.1903
214.52        27.84631
214.98        19.20403
215.44        18.71918
215.90        30.01881
216.36         -188.83
216.81       -51.27952
217.27        -74.1342
217.73        -167.368
218.19       -696.5439
218.65       -14015.73
219.11       -907.6854
219.57       -182.0153
220.02       -60.90847
220.48       -87.59013
220.94        169.4497
221.40        82.31961
221.86        72.74737
222.32        73.97624
222.77        81.04173
223.23        96.53838
223.69        121.4559
224.15         137.473
224.61        129.4349
225.06        110.9081
225.52        98.64392
225.98        99.52439
226.44        112.6445
226.90        136.7168
227.36        168.1917
227.81        189.1022
228.27        187.1686
228.73        171.5071
229.19        152.3753
229.65        137.5971
230.10        127.5548
230.56        120.6932
231.02         115.711
231.48        111.8906
231.93        108.8166
232.39        107.0107
232.85        106.1671
233.31        106.1311
233.77        106.6863
234.22         107.391
234.68        108.3559
235.14        109.8479
235.60        111.7958
236.05        114.4886
236.51        116.1306
236.97        113.9098
237.43        107.6499
237.88        98.73772
238.34        90.62073
238.80        87.16811
239.26        89.34301
239.71        99.26201
240.17        117.7904
240.63        136.1743
241.08        138.6003
241.54        120.7391
242.00        97.95541
242.46         86.5457
242.91        88.13196
243.37        101.8041
243.83        129.3674
244.28         150.612
244.74        128.6589
245.20        75.31567
245.66        22.82006
246.11       -8.955511
246.57       -22.40973
247.03       -24.25037
247.48       -20.25199
247.94       -16.06535
248.40        -12.4754
248.85       -8.947008
249.31       -2.694455
249.77         8.53662
250.22        21.47005
250.68        32.73347
251.14         40.5938
251.59        45.20698
252.05        48.02027
252.51        49.77729
252.96        52.58768
253.42        60.61313
253.88         73.4842
254.33        86.20107
254.79         93.4799
255.25        92.72562
255.70        87.86317
256.16        83.17725
256.62        80.32245
257.07        80.37751
257.53        82.92857
257.99        86.21788
258.44          88.757
258.90         89.6079
259.35        88.38111
259.81        86.65935
260.27        84.61616
260.72        82.43562
261.18        80.82594
261.63        79.33376
262.09        78.51527
262.55        78.40952
263.00        78.75033
263.46        79.47581
263.91        80.13748
264.37        80.53268
264.83        80.47599
265.28        80.05215
265.74        79.34602
266.19        78.06311
266.65        76.45833
267.11        74.54096
267.56        72.69888
268.02        71.63882
268.47        71.35256
268.93        71.68361
269.38        72.13903
269.84         71.8707
270.30        70.74106
270.75        69.06505
271.21        67.40659
271.66        66.41446
272.12        66.22764
272.57        66.49451
273.03        66.93839
273.48        67.13776
273.94        66.95106
274.39        66.50926
274.85        65.77117
275.31         64.5068
275.76        62.77329
276.22        60.79686
276.67        58.93733
277.13        57.89783
277.58        57.59815
278.04        57.85084
278.49        58.11332
278.95        57.63652
279.40        56.25113
279.86        54.42085
280.31        52.47952
280.77        51.03636
281.22         50.0646
281.68        49.45123
282.13        48.97364
282.59         48.4609
283.04        47.81316
283.50        47.13842
283.95        46.47964
284.41        45.96715
284.86        45.57056
285.32        45.28283
285.77        44.95107
286.22        44.45261
286.68        43.79914
287.13        43.00585
287.59        42.26334
288.04        41.74248
288.50        41.50064
288.95         41.4342
289.41        41.41057
289.86        41.15961
290.32        40.66724
290.77        39.99425
291.22        39.31608
291.68        38.85946
292.13        38.64484
292.59        38.62375
293.04        38.66163
293.50        38.57383
293.95        38.31269
294.40        37.95702
294.86        37.64941
295.31        37.57096
295.77        37.75385
296.22        38.11311
296.68        38.51381
297.13        38.74433
297.58        38.73603
298.04         38.5829
298.49        38.34343
298.95        38.15372
299.40        38.03259
299.85        37.94745
300.31        37.93088
300.76        38.00092
301.21        38.16099
301.67        38.41494
302.12         38.6536
302.58          38.735
303.03        38.61792
303.48        38.35226
303.94        38.09348
304.39         38.0084
304.84        38.14081
305.30        38.42081
305.75        38.68693
306.20        38.72803
306.66        38.52178
307.11        38.13636
307.57        37.71507
308.02         37.3923
308.47        37.23009
308.93         37.1787
309.38        37.18831
309.83        37.22803
310.29        37.26978
310.74        37.30996
311.19        37.31375
311.65        37.21891
312.10        37.00766
312.55         36.6982
313.00        36.33286
313.46        35.98612
313.91        35.67254
314.36        35.39452
314.82        35.15163
315.27        34.92557
315.72         34.7191
316.18        34.54025
316.63        34.39533
317.08        34.29431
317.53        34.23364
317.99        34.20011
318.44        34.17172
318.89        34.10085
319.35        33.97327
319.80        33.79344
320.25        33.59466
320.70        33.43821
321.16        33.32711
321.61        33.24929
322.06        33.14753
322.51        32.93021
322.97        32.58536
323.42        32.16631
323.87        31.74101
324.32        31.42019
324.78        31.23276
325.23        31.15019
325.68        31.14467
326.13        31.17315
326.59        31.19501
327.04        31.23417
327.49        31.23985
327.94        31.14065
328.39        30.92473
328.85        30.60016
329.30        30.24432
329.75        29.96463
330.20        29.80113
330.66        29.72123
331.11        29.71011
331.56        29.69493
332.01        29.64939
332.46        29.59157
332.92        29.51021
333.37        29.42333
333.82         29.3223
334.27        29.20057
334.72        29.06956
335.17        28.95513
335.63        28.85986
336.08        28.80247
336.53        28.76875
336.98        28.74407
337.43        28.72185
337.88        28.69984
338.34        28.68716
338.79        28.70302
339.24        28.74533
339.69        28.80963
340.14        28.85678
340.59        28.82704
341.05        28.71229
341.50        28.53384
341.95        28.35775
342.40        28.29415
342.85        28.36674
343.30         28.5447
343.75        28.74781
344.20        28.84473
344.66        28.81161
345.11        28.68334
345.56        28.53758
346.01        28.49208
346.46        28.57411
346.91        28.73918
347.36         28.9306
347.81        29.06297
348.26        29.10968
348.72        29.09943
349.17        29.05128
349.62        29.00299
350.07        28.96611
350.52        28.92308
350.97        28.86699
351.42        28.79142
351.87        28.69323
352.32        28.57994
352.77        28.45028
353.22        28.29903
353.67        28.13204
354.13         27.9644
354.58        27.79757
355.03        27.65514
355.48        27.54432
355.93        27.46282
356.38        27.40733
356.83        27.37166
357.28        27.34881
357.73        27.33249
358.18        27.31687
358.63         27.2944
359.08        27.25908
359.53        27.20886
359.98        27.13017
360.43        27.00642
360.88        26.83555
361.33        26.62016
361.78         26.3893
362.23         26.1858
362.68        26.02045
363.13        25.89108
363.58         25.7589
364.03         25.5604
364.48        25.29123
364.93        24.97697
365.38        24.68833
365.83        24.53066
366.28        24.52037
366.73         24.6193
367.18        24.74357
367.63        24.75965
368.08        24.62843
368.53        24.38344
368.98        24.09418
369.43        23.86606
369.88        23.72848
370.33        23.65956
370.78        23.59901
371.23        23.44952
371.68        23.19491
372.13        22.87001
372.58        22.57383
373.03        22.45114
373.48        22.52122
373.93        22.73259
374.38        22.95089
374.83        22.95641
375.28        22.69749
375.72        22.23905
376.17         21.7404
376.62        21.39531
377.07         21.2495
377.52        21.24608
377.97        21.29463
378.42        21.24876
378.87        21.07742
379.32        20.84044
379.77        20.61777
380.22        20.51744
380.67         20.5542
381.11        20.68164
381.56        20.82572
382.01        20.88199
382.46        20.81636
382.91        20.66747
383.36        20.47044
383.81        20.27343
384.26        20.09712
384.71        19.93019
385.15        19.78015
385.60         19.6785
386.05        19.62136
386.50        19.60058
386.95        19.59825
387.40        19.58152
387.85        19.54105
388.29        19.47821
388.74        19.40456
389.19        19.29394
389.64        19.14652
390.09        18.96264
390.54        18.78912
390.98        18.68486
391.43        18.66743
391.88        18.75175
392.33        18.86142
392.78        18.79156
393.23        18.57877
393.67        18.44538
394.12        18.42507
394.57         18.3752
395.02        18.30104
395.47        18.28548
395.91        18.31433
396.36        18.30576
396.81        18.26141
397.26        18.21199
397.71        18.15918
398.15        18.12715
398.60        18.14283
399.05         18.0832
399.50        17.98673
399.95        18.12021
400.39        18.39501
400.84        18.29088
401.29         17.8608
401.74        17.62682
402.18        17.62594
402.63        17.58728
403.08        17.52082
403.53         17.4165
403.97        17.51958
404.42        17.59569
404.87        17.67994
405.32         17.7035
405.76        17.65058
406.21        17.54164
406.66        17.41415
407.11        17.33588
407.55        17.32589
408.00        17.36082
408.45        17.40187
408.90        17.37647
409.34        17.26764
409.79        17.10332
410.24        16.93728
410.68        16.84027
411.13        16.82872
411.58        16.88191
412.03        16.95324
412.47        16.96455
412.92        16.89036
413.37         16.7598
413.81        16.62407
414.26        16.57278
414.71         16.6121
415.15        16.72311
415.60        16.83948
416.05        16.86364
416.49        16.77167
416.94        16.60425
417.39        16.42815
417.83        16.33816
418.28        16.35455
418.73        16.43814
419.17        16.55405
419.62        16.63427
420.07        16.65432
420.51        16.63334
420.96        16.57307
421.41         16.4618
421.85        16.30393
422.30        16.11724
422.74        15.93584
423.19        15.85805
423.64        15.88161
424.08        15.96202
424.53         16.0479
424.98        16.11398
425.42        16.14845
425.87        16.10921
426.31        16.03012
426.76        16.06359
427.21        16.17433
427.65        16.12327
428.10        15.96017
428.54        15.92929
428.99        16.04873
429.44        16.28115
429.88        16.49382
430.33         16.3891
430.77        16.03578
431.22        15.82008
431.66        15.80359
432.11        15.88371
432.56         16.0092
433.00        16.16344
433.45         16.1825
433.89        16.00218
434.34        15.19603
434.78        15.16267
435.23        15.73911
435.67        15.89617
436.12        15.62494
436.57        15.49854
437.01        15.55677
437.46        15.56853
437.90        15.53521
438.35        15.52068
438.79        15.51812
439.24        15.50457
439.68        15.48704
440.13        15.51237
440.57        15.54897
441.02        15.52823
441.46        15.44265
441.91        15.30745
442.35        15.17013
442.80        15.20563
443.24        15.37195
443.69        15.47394
444.13        15.47524
444.58        15.47992
445.02        15.47806
445.47         15.3913
445.91        15.26075
446.36        15.20637
446.80        15.23884
447.24        15.32434
447.69        15.42247
448.13        15.46803
448.58        15.44606
449.02        15.37794
449.47        15.29444
449.91        15.23143
450.36        15.20508
450.80        15.19951
451.25        15.20627
451.69        15.20682
452.13        15.19644
452.58        15.18247
453.02        15.16727
453.47        15.16056
453.91        15.16259
454.36        15.16759
454.80         15.1644
455.24         15.1595
455.69        15.15922
456.13        15.11141
456.58         15.0269
457.02        15.09832
457.46          15.085
457.91        15.03552
458.35        14.90502
458.79        14.88877
459.24        14.96951
459.68        14.96283
460.13        14.89068
460.57        14.86211
461.01        14.88873
461.46        14.90723
461.90        14.89963
462.34        14.85648
462.79         14.7727
463.23        14.65152
463.68        14.54082
464.12        14.50488
464.56        14.55134
465.01        14.69722
465.45        14.85605
465.89        14.85867
466.34        14.73341
466.78        14.65627
467.22        14.65981
467.67        14.66824
468.11        14.68217
468.55        14.69551
468.99        14.70695
469.44         14.7346
469.88        14.77535
470.32        14.80182
470.77        14.80653
471.21         14.8003
471.65        14.78195
472.10         14.7476
472.54        14.70757
472.98        14.68808
473.42        14.69318
473.87        14.72083
474.31        14.74604
474.75        14.74342
475.20        14.71432
475.64        14.66142
476.08        14.60075
476.52         14.5773
476.97        14.60105
477.41        14.61804
477.85        14.60419
478.29        14.80008
478.74        14.70659
479.18        14.83018
479.62        14.98864
480.06        15.05116
480.50        15.00321
480.95        14.92496
481.39        14.85254
481.83        14.81946
482.27         14.8463
482.72        14.94193
483.16        15.06454
483.60        15.13372
484.04        15.13544
484.48        15.07632
484.93        15.06637
485.37        15.15793
485.81        15.38551
486.25        15.65066
486.69        16.18011
487.14        15.79397
487.58        15.82123
488.02        15.67883
488.46        15.76925
488.90        15.52474
489.34        15.37767
489.79        15.37636
490.23        15.61415
490.67        15.96235
491.11        16.28703
491.55        16.22367
491.99        15.86128
492.43        15.76116
492.88        15.96634
493.32        16.14872
493.76        16.25047
494.20        16.34478
494.64        16.42108
495.08        16.46599
495.52        16.49867
495.96        16.55975
496.41        16.65562
496.85        16.74236
497.29        16.82631
497.73        16.97694
498.17        17.15907
498.61        17.25274
499.05        17.24335
499.49        17.17418
499.93        17.09129
500.37        17.08428
500.82        17.16099
501.26        17.23204
501.70        17.29428
502.14        17.42421
502.58        17.59265
503.02        17.70485
503.46        17.74603
503.90        17.74164
504.34        17.72125
504.78        17.73493
505.22        17.79753
505.66        17.88893
506.10        17.97337
506.54        18.03632
506.98        18.07702
507.42        18.03374
507.86         17.9161
508.30        18.12788
508.74         18.0447
509.18         18.1591
509.62        18.26419
510.06        18.35109
510.50        18.40507
510.94        18.44078
511.38        18.45883
511.82        18.44109
512.26        18.39386
512.70        18.32668
513.14        18.26307
513.58        18.24056
514.02        18.26755
514.46        18.33128
514.90        18.41965
515.34        18.51017
515.78        18.58953
516.22        18.66083
516.66        18.70775
517.10        18.70666
517.54        18.65675
517.98        18.56457
518.42        18.46072
518.86        18.39553
519.30        18.38189
519.74        18.40918
520.18         18.4509
520.62        18.46121
521.06        18.42756
521.50        18.36285
521.93        18.28975
522.37        18.24618
522.81        18.23897
523.25        18.25467
523.69        18.27037
524.13        18.25047
524.57        18.19042
525.01        18.10885
525.45        18.02806
525.89        17.98224
526.32        17.97929
526.76        18.00527
527.20        18.05427
527.64        18.11936
528.08        18.19048
528.52        18.26699
528.96         18.3217
529.40        18.31244
529.83        18.23214
530.27        18.09843
530.71        17.95088
531.15        17.85421
531.59        17.82425
532.03        17.84594
532.46         17.8869
532.90        17.89292
533.34        17.85254
533.78        17.78741
534.22        17.72237
534.66        17.69258
535.09        17.70141
535.53        17.73323
535.97        17.77376
536.41        17.78943
536.85        17.76954
537.28        17.77262
537.72        17.78754
538.16        17.68334
538.60        17.52057
539.04        17.54707
539.47        17.73111
539.91        17.82022
540.35        17.80002
540.79        17.81899
541.22        17.88091
541.66        17.93686
542.10        17.98865
542.54        18.02205
542.97        18.04967
543.41        18.16389
543.85        18.33509
544.29        18.42055
544.72        18.42256
545.16        18.47543
545.60        18.58066
546.04        18.66731
546.47        18.73565
546.91        18.82013
547.35        18.92107
547.79        19.03528
548.22         19.1606
548.66        19.29191
549.10        19.43278
549.53        19.62948
549.97        19.85183
550.41        20.00558
550.84        20.07525
551.28        20.10747
551.72        20.12603
552.15        20.15433
552.59        20.21485
553.03        20.29133
553.46         20.3766
553.90        20.48688
554.34        20.60768
554.77        20.71557
555.21        20.80771
555.65        20.89588
556.08         20.9754
556.52        21.03993
556.96        21.08591
557.39         21.1285
557.83        21.17727
558.27        21.19947
558.70         21.2123
559.14        21.29275
559.57        21.42034
560.01        21.50398
560.45        21.53439
560.88        21.57449
561.32        21.63618
561.75        21.66431
562.19        21.69337
562.63        21.75538
563.06        21.84737
563.50        22.02884
563.93        22.24142
564.37        22.23962
564.80        22.08202
565.24        22.15682
565.68        22.42862
566.11        22.56038
566.55         22.5484
566.98        22.56838
567.42        22.63928
567.85        22.77362
568.29        22.82479
568.72        22.92816
569.16        23.05246
569.60        23.20165
570.03        23.36907
570.47        23.53188
570.90         23.6716
571.34         23.8445
571.77         24.1392
572.21        24.04586
572.64        24.27131
573.08        24.12411
573.51        24.61537
573.95        24.60784
574.38        24.41008
574.82        24.48079
