SpectraSmart Spectrum 2.9.0.0
--------- Device Information -----------
Spectrum Name :  反射率_0
Saving Time :  2024/05/03 20:49:02
Spectro-Module Model Name : SE2030-DUVN
Spectro-Module Serial Number : OS361AC55029948
Wavelength Start : 200
Wavelength End : 1025
Wavelength Unit : Wavelength(nm)
Spectrum Unit : Reflectance(%)
-----------Spectrum Setting ------------
Integration Time : 20ms
Average : 10
Boxcar : 0
Background removal :  enabled
linearity correction :  enabled
SC :  disabled
Intensity correction :  disabled
DWT denoise :  enabled
savitzky-golay :  disabled
FFT :  disabled
Running average :  disabled
Kalman :  disabled
High pass :  disabled
---------------BEGIN--------------------
Wavelength(nm)             Reflectance(%)
200.29               0
200.75        8.831721
201.21       -4.020751
201.67        770.6617
202.13        41.01639
202.58        26.53034
203.04        19.35115
203.50         15.7061
203.96        17.27099
204.42        26.68437
204.88        64.06326
205.34       -1299.388
205.80       -129.3584
206.26       -143.9809
206.72       -32014.59
207.18        100.6773
207.64        51.70743
208.10          32.456
208.55        5.281543
209.01       -207.4098
209.47       -265.2917
209.93        7.669214
210.39         33.9769
210.85        41.87758
211.31        46.67014
211.77        52.12774
212.23        62.69242
212.69        83.45909
213.14        78.44952
213.60        32.56945
214.06        12.74164
214.52        6.354087
214.98        2.829537
215.44       -1.653602
215.90       -14.25819
216.36        110.8694
216.81        3.686333
217.27       -28.46013
217.73       -105.9598
218.19       -534.8782
218.65       -12292.94
219.11       -929.0638
219.57       -241.6444
220.02       -129.1198
220.48       -209.9959
220.94        255.5395
221.40        87.51604
221.86        63.63684
222.32        57.63578
222.77        57.74757
223.23         62.9769
223.69        73.68903
224.15        82.57081
224.61        82.12841
225.06        76.67924
225.52        73.48487
225.98        76.16343
226.44        84.84683
226.90        99.00188
227.36        116.5679
227.81        127.4852
228.27        125.1265
228.73        115.0704
229.19        103.2185
229.65        93.91831
230.10        87.38583
230.56        82.90618
231.02        79.92168
231.48        78.26144
231.93        77.57289
232.39        78.01576
232.85        79.00395
233.31        79.89102
233.77        80.46739
234.22        80.58768
234.68        80.77842
235.14        82.00458
235.60        84.40475
236.05        87.96496
236.51        90.91616
236.97        90.15102
237.43        85.22646
237.88        77.76677
238.34        70.63846
238.80        66.91242
239.26        67.19859
239.71        73.09586
240.17        84.42724
240.63        99.72133
241.08        110.1839
241.54        111.2387
242.00        105.8901
242.46        101.0546
242.91        98.26226
243.37        92.89532
243.83        84.93066
244.28        82.86752
244.74        95.58908
245.20         121.114
245.66        137.4843
246.11        126.5574
246.57        96.65479
247.03        58.16344
247.48        24.58359
247.94        7.083073
248.40        4.739544
248.85        11.54648
249.31        24.06232
249.77        33.22286
250.22        35.16821
250.68        34.30855
251.14         32.9286
251.59        32.94955
252.05        35.13965
252.51        38.94696
252.96        46.29239
253.42        59.27834
253.88        74.07656
254.33        85.90833
254.79        89.78938
255.25        84.18283
255.70        74.84232
256.16        66.49842
256.62        61.22412
257.07        60.25178
257.53        62.64138
257.99        66.38103
258.44        69.61021
258.90        70.86338
259.35        69.79665
259.81        67.97754
260.27        65.92219
260.72         64.1544
261.18        63.15541
261.63        62.37136
262.09        61.95175
262.55        61.64526
263.00        61.29169
263.46         61.0059
263.91        60.71663
264.37        60.65194
264.83        60.70507
265.28        60.76733
265.74        60.66347
266.19        59.86049
266.65        58.51348
267.11        56.75423
267.56        55.01695
268.02        54.02738
268.47        53.81797
268.93        54.19208
269.38        54.70767
269.84        54.60967
270.30        53.75714
270.75        52.43291
271.21          51.091
271.66         50.2525
272.12        50.02988
272.57        50.13273
273.03        50.36537
273.48        50.44505
273.94        50.27398
274.39        49.96722
274.85        49.43728
275.31        48.42048
275.76        46.96356
276.22        45.26725
276.67        43.72533
277.13         43.0307
277.58        43.12956
278.04        43.82269
278.49        44.53198
278.95        44.41072
279.40         43.2861
279.86        41.63685
280.31        39.89455
280.77        38.75655
281.22        38.22571
281.68        38.10681
282.13        38.14355
282.59        38.07625
283.04        37.77946
283.50        37.38497
283.95        36.90189
284.41        36.38698
284.86        35.83876
285.32        35.27435
285.77        34.69097
286.22        34.17551
286.68        33.76696
287.13        33.42531
287.59        33.17195
288.04         32.9535
288.50        32.77542
288.95        32.60528
289.41         32.4451
289.86        32.24554
290.32         32.0256
290.77        31.77384
291.22        31.51213
291.68        31.25657
292.13        31.00469
292.59        30.78568
293.04        30.61662
293.50         30.5502
293.95        30.58839
294.40        30.71483
294.86        30.92943
295.31         31.2176
295.77         31.5641
296.22        31.95391
296.68        32.32341
297.13        32.57378
297.58        32.67729
298.04        32.68335
298.49        32.63758
298.95        32.65489
299.40        32.74847
299.85        32.89758
300.31         33.1166
300.76        33.39306
301.21         33.7206
301.67        34.10034
302.12        34.44925
302.58         34.6646
303.03        34.71178
303.48        34.62796
303.94        34.52829
304.39        34.52691
304.84        34.66712
305.30        34.90839
305.75        35.14454
306.20        35.24564
306.66        35.19767
307.11        35.02842
307.57        34.83801
308.02         34.7046
308.47        34.66885
308.93        34.70313
309.38        34.74475
309.83        34.73971
310.29        34.67066
310.74        34.54628
311.19         34.3989
311.65        34.27438
312.10        34.17562
312.55         34.0886
313.00        33.97868
313.46        33.79838
313.91        33.53167
314.36        33.21291
314.82        32.89488
315.27        32.64584
315.72        32.49167
316.18        32.41292
316.63        32.37391
317.08        32.32131
317.53        32.23596
317.99        32.12527
318.44         32.0128
318.89        31.92292
319.35        31.85897
319.80        31.80598
320.25        31.73888
320.70        31.62725
321.16        31.45712
321.61        31.24391
322.06        31.00274
322.51         30.7622
322.97        30.53468
323.42        30.32785
323.87        30.13062
324.32         29.9265
324.78        29.71108
325.23        29.50003
325.68        29.31495
326.13        29.19435
326.59        29.13245
327.04        29.12924
327.49        29.13842
327.94        29.09469
328.39        28.97912
328.85        28.80246
329.30          28.604
329.75        28.42494
330.20        28.28261
330.66         28.1495
331.11        28.04428
331.56        27.95873
332.01        27.88887
332.46        27.84652
332.92        27.78634
333.37        27.66431
333.82        27.46193
334.27         27.1911
334.72        26.93303
335.17        26.82864
335.63        26.89963
336.08        27.12039
336.53        27.37006
336.98        27.45877
337.43        27.33726
337.88        27.06169
338.34        26.73401
338.79        26.52598
339.24        26.48799
339.69        26.57252
340.14        26.71145
340.59        26.79548
341.05         26.7901
341.50        26.73181
341.95        26.66625
342.40        26.66693
342.85        26.74866
343.30        26.87938
343.75        27.00248
344.20        27.03378
344.66        26.96486
345.11        26.82553
345.56        26.67602
346.01         26.6038
346.46        26.63135
346.91        26.72534
347.36        26.85657
347.81        26.98039
348.26         27.0754
348.72        27.15492
349.17        27.19858
349.62        27.18198
350.07        27.10538
350.52        26.97372
350.97        26.82202
351.42        26.71018
351.87        26.65169
352.32        26.63136
352.77        26.62059
353.22         26.5699
353.67         26.4695
354.13        26.34822
354.58        26.21258
355.03        26.09303
355.48        26.00093
355.93        25.92734
356.38        25.87778
356.83        25.86273
357.28        25.87685
357.73        25.91119
358.18        25.94285
358.63        25.93427
359.08        25.87501
359.53        25.77479
359.98        25.64125
360.43        25.49164
360.88         25.3314
361.33           25.15
361.78        24.96445
362.23        24.79841
362.68        24.65643
363.13        24.54586
363.58        24.42328
364.03        24.21714
364.48        23.92571
364.93        23.57581
365.38        23.26181
365.83        23.12739
366.28        23.19381
366.73        23.41132
367.18        23.66192
367.63        23.75314
368.08        23.63262
368.53        23.35366
368.98        23.01559
369.43         22.7735
369.88        22.66682
370.33        22.64882
370.78        22.64935
371.23        22.55355
371.68         22.3353
372.13        22.04546
372.58        21.75338
373.03         21.5546
373.48        21.47167
373.93        21.47011
374.38        21.50229
374.83        21.49351
375.28        21.41705
375.72        21.28396
376.17        21.13848
376.62        21.01007
377.07        20.90497
377.52         20.8081
377.97        20.70068
378.42        20.55797
378.87        20.38399
379.32        20.20174
379.77        20.03409
380.22         19.9073
380.67         19.8229
381.11        19.76761
381.56        19.73108
382.01        19.71209
382.46         19.7025
382.91        19.70413
383.36        19.68231
383.81        19.58391
384.26        19.40754
384.71        19.17376
385.15        18.93985
385.60        18.81772
386.05        18.82216
386.50        18.91161
386.95         19.0306
387.40        19.09258
387.85        19.07403
388.29        18.99839
388.74        18.89382
389.19        18.75589
389.64        18.59444
390.09        18.40477
390.54         18.2345
390.98        18.14565
391.43        18.15393
391.88        18.27051
392.33        18.41808
392.78        18.39139
393.23        18.22063
393.67        18.12137
394.12        18.11765
394.57        18.05572
395.02        17.93966
395.47        17.85586
395.91        17.80313
396.36        17.72524
396.81        17.63286
397.26        17.55126
397.71        17.47819
398.15        17.42804
398.60          17.425
399.05        17.35774
399.50          17.259
399.95        17.37725
400.39        17.62729
400.84        17.50997
401.29        17.09309
401.74        16.90403
402.18         16.9828
402.63        17.06066
403.08        17.11419
403.53        17.08282
403.97        17.19358
404.42        17.22504
404.87        17.24514
405.32        17.24126
405.76         17.2101
406.21        17.15852
406.66        17.08451
407.11        16.99251
407.55        16.89286
408.00        16.78699
408.45        16.69005
408.90        16.62307
409.34        16.59162
409.79        16.58549
410.24        16.60438
410.68        16.64459
411.13        16.70122
411.58        16.77492
412.03        16.82742
412.47        16.79684
412.92        16.67183
413.37        16.47911
413.81        16.28639
414.26        16.20688
414.71        16.25002
415.15        16.39318
415.60        16.55957
416.05        16.62607
416.49        16.55716
416.94        16.39829
417.39        16.21624
417.83        16.10734
418.28        16.09493
418.73        16.13981
419.17         16.2167
419.62        16.27522
420.07        16.29779
420.51         16.3022
420.96        16.28255
421.41         16.2148
421.85        16.09744
422.30        15.94606
422.74        15.80022
423.19         15.7672
423.64        15.84592
424.08        15.99144
424.53        16.13189
424.98        16.20731
425.42        16.19898
425.87        16.07266
426.31        15.90393
426.76        15.90977
427.21        16.06833
427.65        16.12458
428.10        16.07242
428.54        16.06842
428.99        16.11663
429.44        16.21395
429.88        16.28208
430.33        16.10676
430.77        15.77267
431.22        15.63025
431.66        15.71133
432.11        15.87232
432.56         16.0477
433.00         16.2252
433.45         16.2502
433.89         16.1049
434.34        15.34836
434.78          15.316
435.23        15.86412
435.67        16.04157
436.12        15.84284
436.57        15.80322
437.01        15.94007
437.46        15.98749
437.90        15.93628
438.35        15.86546
438.79        15.79203
439.24        15.72937
439.68        15.69436
440.13        15.72116
440.57        15.77441
441.02        15.77754
441.46        15.71657
441.91        15.61146
442.35        15.49335
442.80        15.51526
443.24        15.63376
443.69          15.657
444.13        15.58114
444.58        15.56496
445.02        15.60845
445.47        15.61501
445.91         15.5883
446.36        15.59218
446.80        15.62428
447.24        15.66805
447.69        15.70933
448.13        15.72561
448.58        15.71401
449.02        15.68105
449.47        15.64112
449.91        15.60582
450.36        15.58421
450.80        15.56908
451.25        15.56077
451.69        15.55288
452.13        15.54423
452.58        15.53766
453.02         15.5295
453.47        15.52069
453.91        15.51104
454.36        15.50076
454.80        15.48589
455.24        15.48396
455.69        15.50342
456.13        15.48441
456.58        15.43423
457.02        15.54654
457.46        15.56944
457.91        15.55214
458.35        15.43986
458.79         15.4224
459.24        15.48345
459.68        15.44083
460.13        15.32978
460.57        15.28137
461.01        15.31213
461.46        15.34966
461.90        15.37662
462.34         15.3841
462.79        15.36237
463.23        15.31432
463.68        15.26666
464.12        15.24931
464.56        15.26639
465.01        15.34907
465.45        15.44211
465.89        15.42101
466.34        15.32299
466.78        15.31465
467.22        15.40319
467.67          15.459
468.11        15.46718
468.55        15.43966
468.99        15.39564
469.44        15.38595
469.88        15.41856
470.32        15.45388
470.77        15.48265
471.21        15.51458
471.65        15.54339
472.10        15.56523
472.54        15.57819
472.98        15.58855
473.42        15.59746
473.87        15.60919
474.31         15.6103
474.75        15.59583
475.20        15.57245
475.64        15.53518
476.08        15.49636
476.52        15.49638
476.97        15.54251
477.41         15.5814
477.85        15.58094
478.29        15.78694
478.74        15.66711
479.18        15.76466
479.62         15.9011
480.06        15.96374
480.50        15.94207
480.95        15.91224
481.39        15.89605
481.83        15.90649
482.27         15.9606
482.72        16.06998
483.16        16.20476
483.60         16.3176
484.04        16.39202
484.48        16.40654
484.93         16.4549
485.37         16.6468
485.81         16.9038
486.25        17.27973
486.69        17.02024
487.14         16.8654
487.58        17.16701
488.02        16.97088
488.46        17.29026
488.90        17.07199
489.34        16.85887
489.79        16.82974
490.23         17.0566
490.67        17.43073
491.11        17.80368
491.55        17.79248
491.99        17.48568
492.43        17.47143
492.88        17.78581
493.32        18.06719
493.76        18.24253
494.20        18.38503
494.64        18.48203
495.08        18.51759
495.52        18.52234
495.96        18.56101
496.41        18.65013
496.85        18.74099
497.29        18.84283
497.73        19.03481
498.17        19.27623
498.61        19.42926
499.05        19.47601
499.49        19.46194
499.93        19.43355
500.37        19.49126
500.82        19.62665
501.26        19.71124
501.70        19.73955
502.14        19.80867
502.58        19.91793
503.02        20.01098
503.46        20.08389
503.90         20.1543
504.34        20.22371
504.78        20.29366
505.22        20.36489
505.66        20.42723
506.10        20.47193
506.54        20.53424
506.98        20.62336
507.42        20.65119
507.86        20.58995
508.30        20.84288
508.74        20.68239
509.18        20.70156
509.62         20.7053
510.06        20.74902
510.50        20.83351
510.94        20.95219
511.38        21.08384
511.82        21.17083
512.26         21.2023
512.70        21.19806
513.14        21.17446
513.58        21.15945
514.02         21.1625
514.46        21.16858
514.90        21.19042
515.34        21.24865
515.78        21.34105
516.22        21.46614
516.66        21.57427
517.10        21.58525
517.54        21.48964
517.98        21.31263
518.42        21.13262
518.86         21.0754
519.30        21.16705
519.74        21.36868
520.18        21.59892
520.62        21.72334
521.06        21.70482
521.50        21.58319
521.93        21.42049
522.37        21.31913
522.81        21.30477
523.25        21.34294
523.69         21.3932
524.13        21.39329
524.57        21.32999
525.01        21.23453
525.45        21.13341
525.89        21.06406
526.32        21.03739
526.76        21.03766
527.20        21.06274
527.64        21.11363
528.08        21.18146
528.52        21.26362
528.96        21.32838
529.40        21.32565
529.83        21.24495
530.27        21.10586
530.71        20.94877
531.15        20.84064
531.59         20.7983
532.03        20.80651
532.46        20.83296
532.90        20.82401
533.34        20.77005
533.78        20.69519
534.22        20.62642
534.66        20.60121
535.09        20.62273
535.53        20.67422
535.97        20.74105
536.41        20.78683
536.85        20.79807
537.28        20.84021
537.72        20.89503
538.16        20.80124
538.60        20.62746
539.04        20.66759
539.47        20.88659
539.91        20.99142
540.35        20.96635
540.79        20.98419
541.22        21.05161
541.66        21.11421
542.10        21.17465
542.54        21.21742
542.97        21.25056
543.41        21.37129
543.85        21.54414
544.29        21.60516
544.72         21.5717
545.16        21.62311
545.60        21.76414
546.04        21.90391
546.47        22.02583
546.91        22.14292
547.35        22.24998
547.79        22.35457
548.22        22.46719
548.66        22.60132
549.10        22.76708
549.53        23.01101
549.97         23.2971
550.41        23.51415
550.84        23.63902
551.28        23.72471
551.72        23.78705
552.15        23.83434
552.59         23.8913
553.03        23.94739
553.46        24.00759
553.90        24.11165
554.34        24.24993
554.77        24.39026
555.21        24.52897
555.65        24.67806
556.08        24.82733
556.52        24.96636
556.96        25.08191
557.39        25.17896
557.83        25.26501
558.27         25.3029
558.70        25.31479
559.14        25.39755
559.57        25.53007
560.01        25.60392
560.45        25.61432
560.88        25.64469
561.32        25.71098
561.75        25.74693
562.19        25.78656
562.63         25.8581
563.06        25.95581
563.50        26.14776
563.93        26.37189
564.37        26.36211
564.80        26.18366
565.24        26.26535
565.68        26.56414
566.11        26.70272
566.55        26.67746
566.98        26.68335
567.42        26.74355
567.85         26.8841
568.29        26.92402
568.72        27.03087
569.16        27.19196
569.60        27.36404
570.03        27.40204
570.47        27.79334
570.90        28.06378
571.34        27.86379
571.77        28.51134
572.21         28.2668
572.64        28.37287
573.08         28.3454
573.51        28.91586
573.95           28.91
574.38        28.58369
574.82        28.57543
