SpectraSmart Spectrum 2.9.0.0
--------- Device Information -----------
Spectrum Name :  反射率_0
Saving Time :  2024/05/03 20:35:52
Spectro-Module Model Name : SE2030-DUVN
Spectro-Module Serial Number : OS361AC55029948
Wavelength Start : 200
Wavelength End : 1025
Wavelength Unit : Wavelength(nm)
Spectrum Unit : Reflectance(%)
-----------Spectrum Setting ------------
Integration Time : 20ms
Average : 10
Boxcar : 0
Background removal :  enabled
linearity correction :  enabled
SC :  disabled
Intensity correction :  disabled
DWT denoise :  enabled
savitzky-golay :  disabled
FFT :  disabled
Running average :  disabled
Kalman :  disabled
High pass :  disabled
---------------BEGIN--------------------
Wavelength(nm)             Reflectance(%)
200.29               0
200.75        8.892381
201.21        14.08597
201.67       -282.6107
202.13         2.94821
202.58        12.86055
203.04        19.89091
203.50        24.71002
203.96        25.95036
204.42        22.68446
204.88        7.307329
205.34        577.3509
205.80        87.10009
206.26        90.56582
206.72        12269.16
207.18       -3.136495
207.64        17.01478
208.10        28.59937
208.55        59.95512
209.01        335.4173
209.47        442.8112
209.93        67.69666
210.39        29.13102
210.85         20.3406
211.31        22.71231
211.77        34.01431
212.23        63.86842
212.69        144.0812
213.14        214.4984
213.60        122.4418
214.06        54.12723
214.52         25.5192
214.98        15.38727
215.44        14.17775
215.90        26.48864
216.36       -198.7733
216.81       -48.46565
217.27       -58.28537
217.73       -114.3766
218.19       -458.9008
218.65       -10243.87
219.11       -847.3052
219.57       -265.0009
220.02       -178.0201
220.48       -312.2739
220.94        334.6436
221.40         94.3176
221.86        58.98184
222.32        50.92573
222.77        53.03075
223.23        63.68268
223.69        83.22729
224.15        96.97722
224.61        92.03352
225.06        79.02091
225.52        70.33286
225.98        71.22746
226.44        81.08224
226.90        98.49284
227.36        120.8817
227.81        135.5733
228.27        133.8475
228.73        122.5255
229.19        108.3481
229.65        96.24483
230.10        87.00084
230.56        80.06344
231.02        75.35118
231.48        73.28215
231.93        73.28262
232.39        74.98386
232.85        77.50511
233.31        79.76713
233.77        81.39828
234.22        82.46093
234.68        83.12965
235.14        83.75166
235.60         84.4147
236.05        85.16469
236.51        85.21584
236.97        83.64565
237.43        80.51438
237.88        76.49261
238.34        73.07248
238.80        71.80919
239.26        73.09892
239.71         78.9029
240.17        88.24332
240.63         97.1715
241.08        96.93407
241.54        85.54276
242.00        72.18857
242.46        65.97024
242.91        67.84529
243.37        77.89645
243.83        98.30828
244.28        117.4087
244.74         110.082
245.20        80.36363
245.66        47.53167
246.11        25.58652
246.57        14.24419
247.03        8.941298
247.48        6.992224
247.94        5.240286
248.40        3.173572
248.85        1.369905
249.31        1.250824
249.77        4.460402
250.22        10.05573
250.68        15.76486
251.14        21.29314
251.59        27.96769
252.05        37.42125
252.51        51.68804
252.96        71.37403
253.42        88.28857
253.88        92.29198
254.33         85.2118
254.79        74.47902
255.25        66.19803
255.70        61.39066
256.16        59.07388
256.62        58.51575
257.07        59.42973
257.53        61.59109
257.99        64.18679
258.44        66.23797
258.90        67.16435
259.35        66.61696
259.81        65.62962
260.27        64.31245
260.72        62.82847
261.18        61.69049
261.63        60.55872
262.09        59.81222
262.55        59.42931
263.00        59.23256
263.46         59.2301
263.91        59.15413
264.37        58.95042
264.83        58.53408
265.28        57.96842
265.74        57.30203
266.19        56.30489
266.65        55.13557
267.11        53.76679
267.56        52.49801
268.02        51.86877
268.47         51.8588
268.93        52.34895
269.38        52.84227
269.84        52.49579
270.30        51.19822
270.75        49.27044
271.21         47.3902
271.66         46.4008
272.12        46.45435
272.57        47.18275
273.03        48.12456
273.48        48.54608
273.94        48.24761
274.39        47.49246
274.85        46.47142
275.31        45.32846
275.76        44.16659
276.22         43.0104
276.67        42.02356
277.13        41.60162
277.58        41.65004
278.04        42.07656
278.49        42.45856
278.95        42.19398
279.40        41.16061
279.86        39.72356
280.31        38.18718
280.77        37.08596
281.22        36.40747
281.68        36.02879
282.13        35.76795
282.59        35.46579
283.04        35.03381
283.50        34.56819
283.95        34.06343
284.41        33.54865
284.86        33.01564
285.32        32.49341
285.77        31.97079
286.22        31.51501
286.68        31.15426
287.13        30.83803
287.59        30.60389
288.04        30.43369
288.50         30.3311
288.95        30.25893
289.41        30.16362
289.86        29.91273
290.32        29.52184
290.77        29.01895
291.22        28.51662
291.68        28.16105
292.13        27.96708
292.59        27.91311
293.04        27.93031
293.50         27.9277
293.95        27.87238
294.40        27.80295
294.86        27.77078
295.31        27.83873
295.77        28.01439
296.22        28.25119
296.68         28.4979
297.13        28.67979
297.58        28.76543
298.04        28.80013
298.49        28.77163
298.95        28.69653
299.40        28.57913
299.85        28.42932
300.31        28.33641
300.76        28.41041
301.21        28.67066
301.67        29.07755
302.12        29.49226
302.58        29.71787
303.03        29.70044
303.48        29.51138
303.94         29.2924
304.39        29.20291
304.84        29.29314
305.30        29.49964
305.75        29.71756
306.20        29.81738
306.66         29.7785
307.11         29.6367
307.57        29.46328
308.02        29.30194
308.47        29.18815
308.93        29.10285
309.38        29.03013
309.83        28.98231
310.29        28.95338
310.74        28.93447
311.19        28.90212
311.65        28.81325
312.10        28.65337
312.55          28.436
313.00        28.18871
313.46        27.95836
313.91        27.75033
314.36        27.56679
314.82        27.39883
315.27        27.21992
315.72        27.03276
316.18        26.84707
316.63        26.68439
317.08        26.58035
317.53        26.53601
317.99        26.52968
318.44        26.53077
318.89        26.47798
319.35        26.35563
319.80        26.18485
320.25        25.98588
320.70        25.79676
321.16        25.62366
321.61        25.45179
322.06         25.2849
322.51        25.13363
322.97        24.99394
323.42        24.87712
323.87        24.73804
324.32        24.50352
324.78        24.16461
325.23        23.75258
325.68        23.34862
326.13        23.09185
326.59         23.0088
327.04        23.07606
327.49        23.20374
327.94        23.24505
328.39        23.15318
328.85        22.95959
329.30        22.73084
329.75        22.56378
330.20        22.48978
330.66        22.46325
331.11        22.46028
331.56         22.4137
332.01          22.307
332.46        22.17299
332.92        22.02067
333.37        21.88834
333.82        21.78216
334.27        21.68953
334.72        21.63708
335.17        21.67157
335.63        21.78528
336.08        21.97318
336.53        22.15669
336.98        22.21611
337.43        22.12234
337.88        21.90741
338.34        21.64307
338.79        21.45291
339.24        21.37581
339.69         21.3849
340.14        21.43584
340.59        21.45382
341.05        21.41672
341.50        21.35004
341.95        21.28767
342.40        21.28555
342.85        21.35019
343.30        21.45165
343.75        21.54177
344.20        21.54775
344.66        21.46509
345.11        21.32782
345.56        21.17655
346.01         21.0685
346.46        21.02702
346.91         21.0291
347.36        21.09433
347.81        21.25532
348.26        21.49619
348.72        21.79473
349.17        22.06054
349.62        22.15697
350.07        22.05763
350.52         21.8066
350.97        21.48356
351.42        21.22191
351.87        21.06283
352.32        20.96778
352.77        20.91779
353.22          20.877
353.67        20.83015
354.13        20.80771
354.58        20.76997
355.03        20.66757
355.48        20.50047
355.93        20.28029
356.38        20.07777
356.83        20.01013
357.28        20.09251
357.73         20.2805
358.18        20.48504
358.63        20.55991
359.08        20.46782
359.53        20.25794
359.98        19.98856
360.43        19.75507
360.88        19.58746
361.33        19.44891
361.78        19.33786
362.23        19.25136
362.68        19.18065
363.13        19.14031
363.58         19.0814
364.03        18.92109
364.48        18.65425
364.93        18.30661
365.38        17.97692
365.83        17.81876
366.28        17.86035
366.73        18.05636
367.18        18.29264
367.63        18.38093
368.08        18.27073
368.53        18.01233
368.98        17.71107
369.43        17.53156
369.88        17.50924
370.33        17.59007
370.78        17.67655
371.23        17.60784
371.68        17.34895
372.13        16.96795
372.58        16.56459
373.03        16.28274
373.48        16.15868
373.93        16.14232
374.38        16.18222
374.83        16.19461
375.28        16.14532
375.72        16.05488
376.17        15.94171
376.62        15.80025
377.07        15.63859
377.52        15.45622
377.97         15.2771
378.42        15.14945
378.87        15.08566
379.32        15.07022
379.77        15.08684
380.22        15.10869
380.67        15.12155
381.11        15.13216
381.56        15.11583
382.01        15.04452
382.46        14.91877
382.91        14.75214
383.36        14.57845
383.81        14.44682
384.26        14.36878
384.71        14.33302
385.15         14.3198
385.60        14.31005
386.05        14.28849
386.50        14.26095
386.95        14.23054
387.40        14.20084
387.85        14.17415
388.29        14.14203
388.74        14.11251
389.19        14.06652
389.64        14.00104
390.09        13.91548
390.54        13.83468
390.98        13.78519
391.43        13.77506
391.88        13.82014
392.33        13.87075
392.78        13.78679
393.23        13.60048
393.67        13.47331
394.12        13.43135
394.57        13.37159
395.02        13.29742
395.47        13.26769
395.91        13.27338
396.36        13.25488
396.81        13.21436
397.26        13.17705
397.71        13.13563
398.15        13.09494
398.60        13.07521
399.05        12.99064
399.50         12.8898
399.95         12.9934
400.39        13.24233
400.84         13.2549
401.29        13.03443
401.74        12.90462
402.18        12.88052
402.63        12.78108
403.08        12.65141
403.53        12.54792
403.97        12.66103
404.42        12.79643
404.87        12.94968
405.32        13.02405
405.76        12.99417
406.21        12.89396
406.66        12.75673
407.11         12.6392
407.55        12.56306
408.00        12.50784
408.45        12.46852
408.90        12.43441
409.34        12.40123
409.79        12.37722
410.24        12.36325
410.68        12.35399
411.13        12.34874
411.58        12.34476
412.03        12.33679
412.47        12.32123
412.92         12.2941
413.37        12.25831
413.81        12.22002
414.26        12.20145
414.71        12.19915
415.15         12.2122
415.60         12.2203
416.05        12.20162
416.49        12.15263
416.94        12.08562
417.39        12.01692
417.83        11.96851
418.28        11.94536
418.73        11.93558
419.17        11.93873
419.62        11.94899
420.07         11.9625
420.51        11.97845
420.96        11.98171
421.41        11.94093
421.85        11.85028
422.30        11.72872
422.74        11.60409
423.19        11.55274
423.64         11.5746
424.08        11.63669
424.53        11.69592
424.98        11.72817
425.42        11.72505
425.87        11.65897
426.31        11.56888
426.76        11.58836
427.21         11.6946
427.65        11.70784
428.10         11.6405
428.54        11.63352
428.99        11.69364
429.44        11.80849
429.88        11.90216
430.33        11.79015
430.77        11.52973
431.22        11.38658
431.66        11.39902
432.11        11.48379
432.56        11.59917
433.00        11.73726
433.45        11.77263
433.89        11.64464
434.34        11.04363
434.78        10.99173
435.23        11.38072
435.67        11.48518
436.12         11.3033
436.57        11.24055
437.01        11.32034
437.46        11.36293
437.90        11.36234
438.35        11.36876
438.79        11.36939
439.24        11.33519
439.68        11.27275
440.13         11.2201
440.57        11.17573
441.02        11.12689
441.46        11.07566
441.91        11.02102
442.35        10.97245
442.80        11.02243
443.24        11.13369
443.69        11.17492
444.13         11.1359
444.58        11.11752
445.02        11.11958
445.47         11.0766
445.91        11.00589
446.36        10.97568
446.80        10.98927
447.24        11.02816
447.69         11.0732
448.13        11.09217
448.58        11.07797
449.02        11.04154
449.47         10.9944
449.91        10.94732
450.36        10.90861
450.80        10.87192
451.25        10.84329
451.69        10.82871
452.13        10.82821
452.58        10.84098
453.02        10.85437
453.47        10.85259
453.91        10.83211
454.36        10.79755
454.80          10.756
455.24         10.7346
455.69        10.74292
456.13        10.73427
456.58        10.70752
457.02        10.78672
457.46        10.79556
457.91        10.77326
458.35        10.68433
458.79        10.66316
459.24        10.69938
459.68        10.66224
460.13        10.58146
460.57        10.55401
461.01        10.59198
461.46        10.64465
461.90        10.68469
462.34        10.67922
462.79        10.61787
463.23         10.5092
463.68        10.40264
464.12        10.36817
464.56        10.41744
465.01        10.55471
465.45        10.70233
465.89        10.71665
466.34        10.61439
466.78        10.52752
467.22        10.49631
467.67        10.49578
468.11        10.53261
468.55        10.59404
468.99        10.65197
469.44        10.67731
469.88        10.66015
470.32         10.5947
470.77        10.50924
471.21        10.46538
471.65        10.47551
472.10        10.51909
472.54        10.57234
472.98        10.60617
473.42        10.61066
473.87        10.59953
474.31        10.57432
474.75        10.54646
475.20        10.52516
475.64        10.50178
476.08        10.47604
476.52        10.46342
476.97        10.46709
477.41        10.45502
477.85        10.42074
478.29        10.55182
478.74        10.49582
479.18        10.60778
479.62        10.74668
480.06        10.80297
480.50        10.76216
480.95        10.68639
481.39        10.61233
481.83        10.58266
482.27        10.61837
482.72        10.72116
483.16        10.85407
483.60         10.9507
484.04        10.97419
484.48        10.96073
484.93        11.03998
485.37        11.14308
485.81        11.15218
486.25        11.86333
486.69        11.64742
487.14        11.18049
487.58         11.6966
488.02        11.48026
488.46        11.53476
488.90         11.4254
489.34        11.23814
489.79        11.28622
490.23        11.48904
490.67        11.78063
491.11        12.03873
491.55        11.98333
491.99        11.69636
492.43        11.63048
492.88         11.8218
493.32        12.00044
493.76        12.11323
494.20        12.21339
494.64        12.28884
495.08        12.32653
495.52        12.34738
495.96        12.39389
496.41        12.47421
496.85        12.55517
497.29        12.63198
497.73         12.7416
498.17        12.85618
498.61        12.89082
499.05         12.8563
499.49        12.81833
499.93        12.81639
500.37        12.90708
500.82        13.06588
501.26        13.17512
501.70        13.21931
502.14        13.26837
502.58        13.33288
503.02        13.39381
503.46         13.4518
503.90        13.51149
504.34        13.55857
504.78        13.57015
505.22        13.54563
505.66        13.49299
506.10        13.43059
506.54        13.41695
506.98        13.46793
507.42        13.51537
507.86        13.52917
508.30        13.75449
508.74        13.70112
509.18        13.76276
509.62        13.80332
510.06        13.84988
510.50         13.9013
510.94        13.95286
511.38        14.00019
511.82        14.02355
512.26        14.02191
512.70        14.00655
513.14        13.98154
513.58        13.95266
514.02        13.92439
514.46         13.8927
514.90        13.87524
515.34        13.89957
515.78        13.96697
516.22        14.07034
516.66        14.16774
517.10        14.19248
517.54        14.13371
517.98        14.01126
518.42        13.88017
518.86        13.82931
519.30        13.87784
519.74         13.9977
520.18        14.13573
520.62        14.20399
521.06         14.1795
521.50        14.09214
521.93        13.98117
522.37        13.90925
522.81        13.89329
523.25        13.90935
523.69        13.93985
524.13        13.95874
524.57        13.95638
525.01        13.94577
525.45        13.92326
525.89         13.8805
526.32         13.8195
526.76        13.74298
527.20        13.67186
527.64        13.64169
528.08        13.65781
528.52        13.70942
528.96        13.76807
529.40        13.78745
529.83         13.7542
530.27        13.68435
530.71        13.60089
531.15        13.54187
531.59        13.51675
532.03        13.51428
532.46        13.51659
532.90        13.49582
533.34        13.44848
533.78        13.38995
534.22        13.33538
534.66        13.30489
535.09        13.29972
535.53        13.30976
535.97        13.33107
536.41        13.34821
536.85        13.35454
537.28        13.39111
537.72        13.43586
538.16         13.3683
538.60        13.22989
539.04        13.21229
539.47        13.31113
539.91        13.36743
540.35        13.37624
540.79        13.44106
541.22        13.53772
541.66        13.58524
542.10        13.57843
542.54        13.52355
542.97        13.46653
543.41        13.53194
543.85        13.70831
544.29         13.8689
544.72        13.98106
545.16        14.09531
545.60        14.19967
546.04        14.25643
546.47        14.28373
546.91        14.33607
547.35        14.42373
547.79        14.53439
548.22        14.66137
548.66        14.79492
549.10        14.93505
549.53         15.1201
549.97        15.32604
550.41        15.47696
550.84        15.55756
551.28        15.60086
551.72        15.62423
552.15        15.64503
552.59        15.68325
553.03        15.73235
553.46         15.7854
553.90        15.85236
554.34        15.92445
554.77         15.9835
555.21        16.04653
555.65         16.1526
556.08        16.29825
556.52        16.46552
556.96        16.61315
557.39        16.69527
557.83         16.7094
558.27        16.64848
558.70        16.56317
559.14        16.57431
559.57         16.6825
560.01        16.79708
560.45        16.88667
560.88        16.96448
561.32        17.02926
561.75        17.04963
562.19        17.06102
562.63        17.09949
563.06         17.1675
563.50        17.30822
563.93        17.47372
564.37        17.46919
564.80        17.34154
565.24        17.39759
565.68        17.61607
566.11        17.74126
566.55        17.76979
566.98        17.83462
567.42        17.93922
567.85         18.0764
568.29        18.12553
568.72        18.19819
569.16        18.27836
569.60        18.38955
570.03        18.53194
570.47        18.67763
570.90        18.80216
571.34        18.99191
571.77        19.19403
572.21        19.16972
572.64        19.29325
573.08        19.23381
573.51        19.72763
573.95        19.73289
574.38        19.49325
574.82        19.55156
