SpectraSmart Spectrum 2.9.0.0
--------- Device Information -----------
Spectrum Name :  反射率_0
Saving Time :  2024/05/03 20:57:22
Spectro-Module Model Name : SE2030-DUVN
Spectro-Module Serial Number : OS361AC55029948
Wavelength Start : 200
Wavelength End : 1025
Wavelength Unit : Wavelength(nm)
Spectrum Unit : Reflectance(%)
-----------Spectrum Setting ------------
Integration Time : 20ms
Average : 10
Boxcar : 0
Background removal :  enabled
linearity correction :  enabled
SC :  disabled
Intensity correction :  disabled
DWT denoise :  enabled
savitzky-golay :  disabled
FFT :  disabled
Running average :  disabled
Kalman :  disabled
High pass :  disabled
---------------BEGIN--------------------
Wavelength(nm)             Reflectance(%)
200.29               0
200.75       -42.93468
201.21       -118.7581
201.67        4889.253
202.13        199.9195
202.58        122.9991
203.04        94.91852
203.50        82.55666
203.96        82.43332
204.42         97.7421
204.88        168.1085
205.34       -2532.764
205.80       -236.3436
206.26       -312.8578
206.72       -90947.76
207.18        380.0427
207.64        268.0539
208.10        277.2369
208.55        417.5869
209.01        1789.043
209.47        1996.911
209.93        299.1229
210.39        144.7346
210.85        108.2193
211.31        102.6183
211.77        113.3508
212.23        151.4712
212.69        257.1277
213.14        340.4326
213.60        210.4447
214.06        119.4692
214.52        85.46052
214.98        82.76178
215.44         107.688
215.90        225.8187
216.36       -1464.721
216.81       -276.3372
217.27       -259.9679
217.73       -410.0396
218.19       -1397.223
218.65       -28295.25
219.11       -2226.654
219.57        -685.724
220.02        -466.339
220.48       -831.2209
220.94        905.8157
221.40        260.1599
221.86         165.688
222.32        145.4768
222.77        153.7554
223.23        186.1304
223.69        244.0269
224.15        284.9905
224.61        270.6905
225.06        232.3456
225.52        205.0038
225.98        202.0899
226.44          221.16
226.90        257.4351
227.36        305.6171
227.81        339.3671
228.27        338.9028
228.73        317.7733
229.19        288.6827
229.65        260.9284
230.10        236.8767
230.56        216.8815
231.02        201.6417
231.48        192.9478
231.93        189.6206
232.39        190.7869
232.85        194.1737
233.31           197.2
233.77        198.9995
234.22        199.6901
234.68        200.1703
235.14        202.1172
235.60        205.8414
236.05        211.3045
236.51        215.2592
236.97        212.6887
237.43        203.0414
237.88        188.6223
238.34        175.0353
238.80        168.7151
239.26        171.2015
239.71        182.9176
240.17        209.0875
240.63        233.4412
241.08        236.0871
241.54        211.5078
242.00        181.2547
242.46        167.6103
242.91        173.6635
243.37        199.6235
243.83        252.3756
244.28        309.0534
244.74        307.9638
245.20        253.1368
245.66        184.8047
246.11        136.2603
246.57        108.9676
247.03        92.59308
247.48        82.85649
247.94        75.21758
248.40        67.79247
248.85        61.32849
249.31        57.22164
249.77        57.90738
250.22        63.03356
250.68        70.21125
251.14        77.99502
251.59        87.43552
252.05        100.7743
252.51        120.6218
252.96        150.3113
253.42        183.0996
253.88        203.6557
254.33        207.6125
254.79        197.5303
255.25        179.0603
255.70        160.4641
256.16        146.6368
256.62        138.4664
257.07        136.5001
257.53        139.5106
257.99        144.4501
258.44        148.9475
258.90        151.4644
259.35        151.0424
259.81        149.8867
260.27        147.8484
260.72        144.8116
261.18        142.0804
261.63        139.0929
262.09        137.1179
262.55        136.4528
263.00        136.6615
263.46        137.5921
263.91        138.3692
264.37        138.5205
264.83        137.7686
265.28        136.3642
265.74        134.6158
266.19         132.217
266.65        129.5966
267.11        126.6676
267.56        123.9359
268.02        122.3926
268.47        121.9748
268.93        122.4794
269.38        123.1246
269.84        122.5863
270.30        120.6527
270.75        117.7919
271.21        114.9366
271.66        113.1728
272.12        112.7192
272.57        112.9996
273.03        113.5075
273.48        113.4337
273.94        112.5817
274.39        111.2591
274.85        109.5408
275.31        107.2491
275.76        104.5028
276.22        101.5806
276.67        98.98079
277.13        97.75938
277.58        97.74046
278.04        98.63304
278.49        99.49656
278.95        99.00113
279.40         96.8485
279.86          93.828
280.31        90.55418
280.77        88.14107
281.22        86.55328
281.68        85.56842
282.13        84.79688
282.59         83.9313
283.04        82.78778
283.50        81.58263
283.95        80.33727
284.41        79.21842
284.86        78.17702
285.32        77.22841
285.77        76.23254
286.22        75.14899
286.68        74.02129
287.13        72.81816
287.59        71.72078
288.04        70.80565
288.50        70.13098
288.95        69.58775
289.41         69.0806
289.86        68.37129
290.32        67.47687
290.77        66.42346
291.22         65.3772
291.68        64.53156
292.13        63.88484
292.59        63.41953
293.04         63.0178
293.50        62.53901
293.95        61.94931
294.40        61.30826
294.86        60.77765
295.31        60.53867
295.77        60.61095
296.22        60.89729
296.68        61.19023
297.13        61.17018
297.58         60.7556
298.04         60.0994
298.49        59.34667
298.95        58.79059
299.40        58.46452
299.85        58.29159
300.31        58.25063
300.76        58.26031
301.21        58.29722
301.67        58.40077
302.12        58.45378
302.58         58.3251
303.03        57.97831
303.48          57.473
303.94        57.01458
304.39        56.81195
304.84        56.92309
305.30        57.25727
305.75        57.60672
306.20        57.70334
306.66        57.51349
307.11        57.11055
307.57        56.65688
308.02        56.28098
308.47        56.06224
308.93        55.95237
309.38        55.91495
309.83        55.96292
310.29        56.07479
310.74         56.2323
311.19        56.36827
311.65        56.36446
312.10        56.18222
312.55        55.84972
313.00        55.44116
313.46        55.08437
313.91        54.79908
314.36        54.58047
314.82        54.38997
315.27        54.14492
315.72        53.84312
316.18        53.51697
316.63         53.2346
317.08          53.106
317.53        53.14671
317.99        53.30843
318.44        53.50172
318.89        53.55363
319.35        53.41596
319.80        53.13123
320.25        52.79326
320.70        52.56392
321.16        52.47161
321.61        52.47655
322.06        52.47968
322.51        52.32411
322.97         51.9742
323.42        51.50729
323.87        51.01546
324.32         50.6492
324.78        50.44567
325.23        50.37053
325.68        50.36864
326.13         50.3572
326.59        50.28629
327.04        50.20936
327.49        50.11047
327.94        49.98074
328.39        49.82447
328.85        49.62134
329.30        49.43139
329.75        49.30149
330.20        49.24794
330.66        49.24621
331.11        49.29003
331.56        49.30142
332.01        49.26377
332.46         49.1983
332.92        49.11043
333.37        49.07323
333.82         49.0808
334.27         49.1085
334.72        49.15416
335.17        49.21778
335.63        49.27531
336.08        49.35596
336.53        49.39991
336.98        49.33222
337.43        49.14521
337.88        48.86458
338.34        48.57113
338.79        48.40575
339.24        48.40295
339.69        48.53624
340.14        48.72829
340.59        48.84838
341.05        48.85905
341.50        48.79688
341.95        48.73338
342.40        48.79222
342.85        48.99389
343.30        49.28717
343.75         49.5726
344.20        49.69667
344.66        49.63796
345.11        49.44768
345.56        49.22184
346.01        49.10251
346.46        49.12946
346.91        49.25193
347.36        49.43372
347.81        49.61803
348.26        49.77643
348.72        49.93059
349.17        50.04157
349.62         50.0592
350.07        49.97826
350.52        49.80393
350.97        49.60065
351.42         49.4783
351.87        49.45787
352.32        49.51022
352.77        49.56138
353.22        49.48896
353.67        49.27303
354.13        48.97565
354.58        48.65313
355.03        48.42491
355.48         48.3224
355.93        48.30826
356.38        48.34247
356.83        48.36624
357.28        48.34897
357.73        48.29253
358.18        48.20015
358.63        48.07703
359.08        47.92562
359.53        47.74934
359.98        47.51562
360.43        47.18124
360.88         46.7492
361.33        46.23405
361.78        45.73822
362.23        45.41097
362.68        45.27804
363.13        45.31069
363.58        45.35485
364.03        45.16204
364.48        44.69026
364.93        44.01428
365.38        43.34919
365.83        43.02847
366.28        43.11179
366.73         43.4879
367.18         43.9119
367.63         43.9866
368.08        43.61362
368.53        42.92045
368.98        42.13353
369.43        41.59597
369.88        41.39504
370.33        41.42827
370.78        41.53354
371.23        41.44391
371.68        41.08553
372.13        40.55287
372.58        39.99398
373.03        39.62035
373.48        39.47906
373.93        39.49828
374.38        39.54686
374.83        39.41833
375.28         39.0674
375.72        38.56032
376.17        38.06282
376.62        37.75093
377.07         37.6571
377.52        37.71085
377.97        37.80778
378.42        37.78482
378.87        37.59965
379.32        37.31277
379.77        36.99519
380.22        36.74065
380.67        36.56926
381.11        36.45206
381.56        36.34193
382.01         36.1977
382.46         36.0106
382.91         35.8065
383.36        35.60584
383.81        35.42874
384.26        35.27893
384.71        35.14737
385.15        35.01969
385.60        34.89717
386.05        34.76942
386.50        34.63306
386.95        34.49544
387.40        34.36649
387.85        34.24823
388.29        34.12635
388.74        34.00868
389.19        33.82882
389.64        33.58032
390.09        33.27683
390.54        32.98788
390.98        32.79374
391.43        32.72646
391.88        32.81567
392.33        32.96244
392.78        32.86035
393.23        32.57716
393.67        32.48665
394.12        32.59914
394.57         32.5929
395.02        32.46045
395.47        32.36224
395.91        32.32645
396.36        32.30247
396.81        32.30773
397.26        32.36405
397.71        32.39422
398.15        32.32381
398.60          32.191
399.05        31.83483
399.50        31.41368
399.95        31.51009
400.39        31.99248
400.84        31.92418
401.29        31.33965
401.74        31.05713
402.18        31.11299
402.63        31.05194
403.08        30.92082
403.53        30.75009
403.97        30.98183
404.42        31.17792
404.87        31.37706
405.32        31.42802
405.76        31.29847
406.21        31.04608
406.66        30.74951
407.11        30.54293
407.55        30.47003
408.00        30.48644
408.45        30.54376
408.90        30.54597
409.34        30.46282
409.79        30.32911
410.24        30.19638
410.68        30.13143
411.13        30.14964
411.58        30.22324
412.03        30.29807
412.47        30.28954
412.92        30.16972
413.37        29.97974
413.81        29.77699
414.26        29.67391
414.71          29.675
415.15        29.76211
415.60        29.86448
416.05         29.8976
416.49        29.83421
416.94        29.70872
417.39        29.56776
417.83        29.47546
418.28        29.44955
418.73        29.46027
419.17        29.49165
419.62        29.50219
420.07        29.48351
420.51        29.44156
420.96        29.38573
421.41        29.30378
421.85        29.18575
422.30        29.05066
422.74        28.90489
423.19        28.83993
423.64        28.84248
424.08        28.85857
424.53        28.84702
424.98        28.85548
425.42         28.8961
425.87        28.86124
426.31        28.80319
426.76        28.97441
427.21        29.29779
427.65        29.34785
428.10        29.15747
428.54        29.08898
428.99        29.17499
429.44        29.35714
429.88        29.48737
430.33        29.22206
430.77        28.68414
431.22         28.4173
431.66        28.49302
432.11        28.76792
432.56        29.13738
433.00        29.47138
433.45        29.48573
433.89        29.29723
434.34         28.0351
434.78        27.87252
435.23          28.596
435.67        28.78819
436.12        28.46865
436.57        28.42712
437.01        28.68176
437.46        28.80136
437.90         28.7591
438.35        28.69195
438.79        28.59929
439.24         28.4563
439.68        28.28907
440.13        28.17758
440.57        28.12604
441.02        28.08399
441.46        28.03946
441.91        28.06042
442.35        28.11115
442.80        28.18089
443.24        28.25062
443.69        28.37722
444.13         28.5055
444.58        28.51759
445.02         28.3998
445.47        28.20883
445.91        28.00464
446.36        27.88588
446.80        27.86819
447.24         27.9326
447.69        28.03584
448.13        28.10353
448.58        28.11778
449.02        28.09367
449.47        28.05854
449.91        28.03651
450.36        28.04179
450.80        28.05087
451.25        28.05755
451.69        28.04265
452.13        28.00483
452.58        27.95607
453.02        27.89668
453.47        27.83731
453.91        27.78177
454.36        27.73174
454.80        27.68745
455.24        27.68335
455.69        27.73245
456.13        27.75398
456.58        27.73961
457.02        27.93995
457.46        27.92767
457.91        27.94562
458.35        27.86909
458.79        27.87844
459.24        27.93726
459.68        27.80715
460.13        27.56192
460.57        27.41969
461.01        27.41405
461.46        27.42511
461.90        27.42206
462.34        27.39305
462.79        27.32231
463.23        27.21597
463.68        27.12209
464.12        27.09572
464.56         27.1412
465.01        27.31167
465.45        27.50271
465.89        27.48766
466.34        27.32983
466.78        27.32526
467.22        27.48903
467.67        27.59344
468.11        27.61369
468.55         27.5702
468.99         27.4895
469.44        27.45019
469.88        27.46532
470.32        27.46708
470.77         27.4568
471.21        27.48164
471.65        27.53573
472.10        27.60477
472.54        27.65943
472.98        27.66873
473.42        27.62801
473.87        27.55933
474.31        27.47122
474.75         27.4032
475.20        27.37658
475.64        27.36788
476.08        27.36813
476.52        27.40262
476.97        27.47247
477.41        27.49481
477.85        27.43881
478.29        27.77998
478.74        27.58956
479.18        27.80621
479.62        28.08472
480.06        28.17642
480.50        28.05439
480.95        27.87639
481.39        27.71104
481.83        27.60913
482.27        27.62659
482.72        27.75581
483.16        27.93424
483.60        28.05711
484.04        28.11894
484.48        28.03341
484.93        27.93112
485.37        28.16615
485.81        28.78731
486.25         28.7044
486.69        29.32523
487.14        29.02569
487.58        28.76055
488.02        28.75194
488.46        28.96724
488.90         28.3957
489.34        28.63723
489.79        28.61314
490.23        28.82107
490.67        29.21752
491.11        29.66899
491.55        29.65413
491.99          29.251
492.43        29.13991
492.88        29.36611
493.32        29.55785
493.76        29.65239
494.20        29.73146
494.64        29.78347
495.08        29.81835
495.52        29.87648
495.96        29.94994
496.41        30.07528
496.85        30.38904
497.29         30.8033
497.73        31.02214
498.17        31.01743
498.61         30.9904
499.05        30.97951
499.49        30.87995
499.93        30.76389
500.37         30.8514
500.82        31.09437
501.26        31.23165
501.70        31.23404
502.14        31.24082
502.58        31.28073
503.02        31.33876
503.46        31.42139
503.90        31.52749
504.34        31.62971
504.78        31.68803
505.22        31.69574
505.66        31.65848
506.10         31.5961
506.54        31.61139
506.98        31.73089
507.42        31.80227
507.86        31.76203
508.30        32.19994
508.74        31.97837
509.18         32.0202
509.62        32.02422
510.06        32.07641
510.50        32.18037
510.94        32.32489
511.38        32.47965
511.82        32.56453
512.26        32.56491
512.70        32.50643
513.14        32.42261
513.58         32.3665
514.02        32.35301
514.46        32.36277
514.90        32.38737
515.34         32.4113
515.78        32.43042
516.22        32.46198
516.66        32.48925
517.10        32.48312
517.54        32.44313
517.98        32.37015
518.42        32.32001
518.86        32.38383
519.30        32.57061
519.74         32.8497
520.18        33.12214
520.62        33.22725
521.06        33.12962
521.50        32.87778
521.93        32.57814
522.37        32.40718
522.81        32.40618
523.25        32.52393
523.69        32.67629
524.13        32.72824
524.57        32.64808
525.01        32.48732
525.45        32.30857
525.89        32.20768
526.32        32.20699
526.76         32.2698
527.20        32.35917
527.64        32.42443
528.08        32.44643
528.52        32.44506
528.96        32.41664
529.40        32.35392
529.83        32.25819
530.27        32.13644
530.71         32.0179
531.15        31.95476
531.59         31.9552
532.03        32.00775
532.46        32.06959
532.90        32.07009
533.34        31.99827
533.78        31.88377
534.22        31.76727
534.66        31.70819
535.09        31.71258
535.53        31.75831
535.97          31.826
536.41        31.86261
536.85        31.84977
537.28        31.88928
537.72         31.9516
538.16        31.78877
538.60        31.50476
539.04        31.54707
539.47        31.86353
539.91        32.01079
540.35        31.96432
540.79        31.98735
541.22        32.08113
541.66        32.14859
542.10        32.19347
542.54        32.19773
542.97        32.19131
543.41        32.34735
543.85        32.61597
544.29        32.73879
544.72        32.72169
545.16        32.80507
545.60        32.98727
546.04        33.13762
546.47        33.24306
546.91        33.34504
547.35        33.44248
547.79        33.54148
548.22        33.64878
548.66        33.77036
549.10        33.91792
549.53        34.16504
549.97        34.46964
550.41        34.68711
550.84        34.78982
551.28        34.85193
551.72        34.88188
552.15        34.86764
552.59         34.8428
553.03        34.80331
553.46        34.77586
553.90          34.846
554.34        35.00434
554.77        35.19204
555.21        35.39008
555.65        35.59406
556.08         35.7818
556.52        35.94574
556.96        36.06712
557.39        36.15268
557.83        36.21592
558.27        36.20385
558.70        36.15989
559.14        36.24194
559.57        36.42166
560.01         36.5389
560.45         36.5717
560.88        36.60807
561.32        36.66235
561.75        36.66937
562.19        36.68475
562.63        36.70426
563.06        36.74989
563.50        37.04407
563.93        37.45861
564.37        37.42659
564.80        37.04015
565.24        37.03697
565.68        37.38053
566.11        37.51729
566.55        37.45055
566.98        37.46449
567.42        37.57613
567.85        37.78566
568.29        37.83879
568.72        37.96503
569.16         38.1119
569.60        38.25993
570.03        38.39539
570.47        38.53337
570.90        38.66629
571.34        38.69255
571.77        39.17398
572.21        38.92051
572.64        39.18697
573.08        38.99253
573.51        39.53876
573.95        39.51408
574.38        39.36106
574.82        39.18159
