SpectraSmart Spectrum 2.9.0.0
--------- Device Information -----------
Spectrum Name :  反射率_0
Saving Time :  2024/05/03 20:54:57
Spectro-Module Model Name : SE2030-DUVN
Spectro-Module Serial Number : OS361AC55029948
Wavelength Start : 200
Wavelength End : 1025
Wavelength Unit : Wavelength(nm)
Spectrum Unit : Reflectance(%)
-----------Spectrum Setting ------------
Integration Time : 20ms
Average : 10
Boxcar : 0
Background removal :  enabled
linearity correction :  enabled
SC :  disabled
Intensity correction :  disabled
DWT denoise :  enabled
savitzky-golay :  disabled
FFT :  disabled
Running average :  disabled
Kalman :  disabled
High pass :  disabled
---------------BEGIN--------------------
Wavelength(nm)             Reflectance(%)
200.29               0
200.75        112.9345
201.21         238.808
201.67       -7721.201
202.13       -252.8213
202.58       -120.9206
203.04       -64.13237
203.50       -31.52883
203.96       -16.01748
204.42       -14.12531
204.88       -39.46457
205.34        1109.401
205.80        129.4722
206.26        149.3549
206.72        31828.38
207.18       -98.90868
207.64       -65.38803
208.10        -80.3212
208.55       -162.4396
209.01       -953.7635
209.47       -1126.034
209.93       -118.8153
210.39         -25.929
210.85        -1.84888
211.31        7.089931
211.77        11.61792
212.23        15.10465
212.69        15.37766
213.14        -3.36519
213.60       -21.92403
214.06       -24.15939
214.52       -24.74773
214.98       -29.42438
215.44       -42.83637
215.90       -94.36677
216.36        585.4592
216.81         90.5504
217.27        56.48773
217.73        36.31551
218.19       -25.45451
218.65       -1812.463
219.11       -123.2913
219.57       -7.009328
220.02        16.86753
220.48        19.75589
220.94        37.68919
221.40        32.70692
221.86        32.72958
222.32        33.57962
222.77        35.10539
223.23         38.2443
223.69        42.41424
224.15        42.26682
224.61        36.23218
225.06        29.17871
225.52        25.06651
225.98        24.88021
226.44        28.03114
226.90        34.36953
227.36        43.12591
227.81        49.55146
228.27        50.28572
228.73        47.55944
229.19        43.73689
229.65        40.78119
230.10        38.88243
230.56        37.63382
231.02         37.0827
231.48        37.53143
231.93        38.74987
232.39        40.64053
232.85        42.59438
233.31        43.74166
233.77        43.95676
234.22        43.45434
234.68         42.8234
235.14        43.07268
235.60        44.49588
236.05         46.9216
236.51        49.59531
236.97        51.06345
237.43        50.75903
237.88        49.28464
238.34        47.56922
238.80        46.56821
239.26        46.51297
239.71        49.34467
240.17        52.30734
240.63        56.09005
241.08        56.66279
241.54        53.16924
242.00         49.2956
242.46        49.27645
242.91        54.34755
243.37        65.61327
243.83         85.0071
244.28        101.5418
244.74        92.32373
245.20        61.51096
245.66        28.31416
246.11        6.129316
246.57       -5.469461
247.03       -10.32481
247.48       -10.98248
247.94       -10.57241
248.40       -9.608675
248.85       -7.704185
249.31       -3.944132
249.77        1.506983
250.22        7.029218
250.68        11.28075
251.14        14.81157
251.59        19.31666
252.05        26.09424
252.51        36.47995
252.96        50.72946
253.42        62.56779
253.88        64.76765
254.33        59.44839
254.79        52.33332
255.25        47.63643
255.70        45.67271
256.16        45.40157
256.62        46.33829
257.07        48.44317
257.53         51.5434
257.99        54.86513
258.44         57.5117
258.90        58.89766
259.35        58.69938
259.81        57.94358
260.27        56.65395
260.72        54.89886
261.18        53.25947
261.63        51.57284
262.09        50.38057
262.55        49.88869
263.00        49.90903
263.46        50.32452
263.91        50.70225
264.37         50.7133
264.83        50.23653
265.28        49.41549
265.74         48.4659
266.19        47.41605
266.65        46.42421
267.11        45.39934
267.56         44.4179
268.02        43.68739
268.47        43.16738
268.93        42.84053
269.38         42.5337
269.84        41.95199
270.30        41.08181
270.75         40.0299
271.21        39.05837
271.66        38.44423
272.12        38.22128
272.57        38.21145
273.03        38.23718
273.48        38.03889
273.94        37.56789
274.39        36.95713
274.85        36.22202
275.31        35.28059
275.76        34.18631
276.22        33.03274
276.67        32.10009
277.13          31.887
277.58        32.33246
278.04        33.29403
278.49        34.23137
278.95        34.33517
279.40        33.44731
279.86        31.98601
280.31        30.44192
280.77        29.56613
281.22        29.37506
281.68        29.64227
282.13        30.01958
282.59        30.07432
283.04        29.68007
283.50        29.04134
283.95         28.3119
284.41        27.73542
284.86        27.35805
285.32        27.11966
285.77        26.94115
286.22        26.77971
286.68         26.6247
287.13        26.47522
287.59        26.36524
288.04        26.27666
288.50        26.22466
288.95        26.17431
289.41        26.11942
289.86        26.00986
290.32        25.86737
290.77          25.696
291.22        25.54739
291.68        25.48141
292.13        25.50406
292.59        25.62659
293.04        25.82026
293.50        26.05489
293.95         26.3065
294.40          26.577
294.86        26.90299
295.31        27.33683
295.77        27.88158
296.22        28.50461
296.68        29.11768
297.13         29.5758
297.58         29.8388
298.04        29.97489
298.49        30.05215
298.95        30.21546
299.40        30.48791
299.85        30.83154
300.31        31.25609
300.76        31.74398
301.21         32.2819
301.67        32.87624
302.12        33.42231
302.58        33.77931
303.03        33.91366
303.48        33.87778
303.94        33.83118
304.39        33.95775
304.84        34.30919
305.30        34.81655
305.75        35.33447
306.20        35.66674
306.66        35.78115
307.11        35.73254
307.57         35.6271
308.02        35.55287
308.47        35.56121
308.93        35.61357
309.38        35.68691
309.83        35.79267
310.29        35.91464
310.74        36.03976
311.19        36.11773
311.65        36.05944
312.10        35.84581
312.55        35.51461
313.00        35.12811
313.46        34.78667
313.91        34.51538
314.36        34.30991
314.82        34.16726
315.27        34.06485
315.72         33.9977
316.18        33.96775
316.63         33.9694
317.08        33.99698
317.53        34.03704
317.99        34.07139
318.44        34.07588
318.89        34.00191
319.35        33.84213
319.80        33.61649
320.25        33.36084
320.70        33.13655
321.16        32.95806
321.61        32.81834
322.06        32.70286
322.51        32.58822
322.97         32.4607
323.42        32.33338
323.87        32.19618
324.32        32.03612
324.78        31.84739
325.23        31.64137
325.68        31.42174
326.13        31.20354
326.59        30.98503
327.04        30.78351
327.49        30.60152
327.94        30.45346
328.39        30.33885
328.85        30.24361
329.30        30.16382
329.75        30.05796
330.20        29.91644
330.66        29.74132
331.11        29.55627
331.56        29.36335
332.01        29.17193
332.46        28.98045
332.92        28.80022
333.37        28.68765
333.82        28.63669
334.27        28.63459
334.72        28.64841
335.17        28.61931
335.63        28.52052
336.08        28.38544
336.53        28.21938
336.98        28.04899
337.43        27.88695
337.88        27.72211
338.34        27.57446
338.79        27.47912
339.24        27.43969
339.69        27.45842
340.14        27.48374
340.59        27.42884
341.05        27.27869
341.50        27.05643
341.95        26.84345
342.40        26.77872
342.85        26.88431
343.30        27.10924
343.75         27.3442
344.20        27.41349
344.66        27.28592
345.11        27.02237
345.56        26.71605
346.01        26.50683
346.46        26.43921
346.91        26.46629
347.36        26.56639
347.81        26.70728
348.26        26.86299
348.72        27.04112
349.17        27.19613
349.62        27.26046
350.07        27.22084
350.52        27.08989
350.97        26.91193
351.42        26.76634
351.87        26.67487
352.32        26.61638
352.77        26.56768
353.22        26.48899
353.67        26.37057
354.13        26.23915
354.58        26.09159
355.03         25.9407
355.48        25.79482
355.93        25.65332
356.38        25.52699
356.83         25.4342
357.28        25.37611
357.73        25.34438
358.18        25.32689
358.63        25.30302
359.08        25.26379
359.53         25.2119
359.98         25.1411
360.43         25.0452
360.88        24.92262
361.33        24.76989
361.78        24.60433
362.23        24.45218
362.68        24.32045
363.13        24.21125
363.58        24.09502
364.03        23.92397
364.48        23.69591
364.93        23.42816
365.38        23.18342
365.83        23.05566
366.28        23.05758
366.73        23.15653
367.18        23.26856
367.63        23.25856
368.08        23.09321
368.53        22.81247
368.98        22.49672
369.43        22.26848
369.88        22.15901
370.33        22.13585
370.78         22.1382
371.23        22.06464
371.68        21.89198
372.13        21.65856
372.58         21.4313
373.03        21.30775
373.48        21.30392
373.93        21.37869
374.38        21.46626
374.83        21.46159
375.28        21.33528
375.72        21.11779
376.17         20.8703
376.62         20.6447
377.07        20.45933
377.52        20.29474
377.97        20.15273
378.42         20.0412
378.87        19.95796
379.32        19.90319
379.77        19.85439
380.22        19.77308
380.67        19.64815
381.11        19.48856
381.56        19.30361
382.01        19.13185
382.46         18.9913
382.91        18.87954
383.36        18.78354
383.81        18.67958
384.26        18.56212
384.71        18.43847
385.15        18.32706
385.60        18.27269
386.05        18.27336
386.50        18.31087
386.95        18.34833
387.40         18.3306
387.85        18.25121
388.29        18.12626
388.74        18.00328
389.19        17.90896
389.64         17.8501
390.09        17.80799
390.54        17.78875
390.98        17.78554
391.43        17.79669
391.88         17.8548
392.33        17.91186
392.78        17.81051
393.23        17.59596
393.67        17.46669
394.12        17.44395
394.57        17.37786
395.02        17.26978
395.47         17.2043
395.91        17.17811
396.36        17.12923
396.81        17.06444
397.26        17.00964
397.71        16.95428
398.15        16.90268
398.60        16.87861
399.05        16.77502
399.50        16.64434
399.95        16.75552
400.39        17.03016
400.84        16.98025
401.29        16.63544
401.74        16.45027
402.18        16.45127
402.63        16.39348
403.08        16.30302
403.53        16.19955
403.97        16.31648
404.42         16.4226
404.87        16.53518
405.32        16.56691
405.76         16.4974
406.21        16.35716
406.66        16.18676
407.11        16.05579
407.55        15.98814
408.00          15.962
408.45        15.95448
408.90         15.9215
409.34        15.85083
409.79         15.7589
410.24        15.67684
410.68        15.64302
411.13        15.66532
411.58         15.7312
412.03        15.79861
412.47        15.79957
412.92        15.71418
413.37        15.56678
413.81        15.41555
414.26        15.35884
414.71        15.40405
415.15        15.53199
415.60        15.66503
416.05        15.68183
416.49        15.55333
416.94        15.32664
417.39        15.08749
417.83        14.95842
418.28        14.96348
418.73        15.05544
419.17        15.18067
419.62        15.23955
420.07         15.2038
420.51        15.11129
420.96        14.98399
421.41        14.83969
421.85        14.69024
422.30        14.53882
422.74        14.41625
423.19        14.41455
423.64         14.5264
424.08        14.70928
424.53        14.89167
424.98        15.00667
425.42        15.03154
425.87        14.93789
426.31        14.78524
426.76        14.76191
427.21        14.84984
427.65        14.81825
428.10        14.70064
428.54            14.7
428.99        14.82426
429.44         15.0459
429.88        15.24237
430.33         15.1377
430.77        14.79614
431.22         14.5725
431.66        14.52507
432.11        14.56297
432.56         14.6425
433.00        14.75262
433.45        14.74526
433.89        14.56298
434.34        13.82133
434.78        13.79165
435.23        14.33455
435.67        14.52841
436.12          14.359
436.57        14.33902
437.01         14.4841
437.46        14.53922
437.90        14.49407
438.35        14.42423
438.79        14.34092
439.24        14.24975
439.68        14.16907
440.13        14.13515
440.57        14.13109
441.02        14.11347
441.46        14.07276
441.91        14.01319
442.35        13.94912
442.80        14.00046
443.24        14.12253
443.69        14.14923
444.13        14.06888
444.58        14.01249
445.02        13.98373
445.47        13.90228
445.91        13.80109
446.36        13.78122
446.80        13.84718
447.24        13.96997
447.69        14.10591
448.13        14.18316
448.58        14.18399
449.02        14.12836
449.47        14.04778
449.91        13.98309
450.36        13.95171
450.80        13.93742
451.25        13.93293
451.69        13.92177
452.13        13.90025
452.58        13.87732
453.02        13.85455
453.47        13.83854
453.91        13.83004
454.36        13.82497
454.80         13.8168
455.24        13.81675
455.69        13.83103
456.13        13.80912
456.58        13.75603
457.02        13.84144
457.46        13.84242
457.91        13.80406
458.35        13.68678
458.79        13.67251
459.24        13.74711
459.68        13.74189
460.13        13.67575
460.57        13.64655
461.01         13.6656
461.46        13.67504
461.90        13.66531
462.34        13.63805
462.79        13.58918
463.23        13.51757
463.68        13.45429
464.12        13.43683
464.56        13.46925
465.01        13.57685
465.45        13.69312
465.89        13.68134
466.34        13.57159
466.78        13.51787
467.22        13.54805
467.67        13.58729
468.11        13.63142
468.55        13.67746
468.99        13.71302
469.44        13.73752
469.88        13.74694
470.32         13.7199
470.77         13.6721
471.21        13.65163
471.65        13.66469
472.10        13.69531
472.54        13.72708
472.98         13.7429
473.42         13.7379
473.87        13.72612
474.31         13.7027
474.75        13.67207
475.20        13.64413
475.64        13.61109
476.08        13.58422
476.52        13.60085
476.97        13.66626
477.41        13.73175
477.85        13.76587
478.29        13.98012
478.74        13.90059
479.18        14.00954
479.62        14.14527
480.06        14.20359
480.50        14.17505
480.95        14.12716
481.39        14.09106
481.83        14.09608
482.27        14.16148
482.72        14.29739
483.16         14.4581
483.60         14.5688
484.04         14.6043
484.48        14.56567
484.93        14.57494
485.37         14.7527
485.81        15.00603
486.25        15.57584
486.69        15.23642
487.14        15.18816
487.58        15.41006
488.02        15.47572
488.46        15.71487
488.90        15.66103
489.34        15.29407
489.79         15.2112
490.23        15.40199
490.67        15.74657
491.11        16.12075
491.55        16.20582
491.99        16.05128
492.43        16.11046
492.88        16.40095
493.32        16.61544
493.76        16.71799
494.20        16.82706
494.64        16.94547
495.08        17.03927
495.52        17.12247
495.96        17.23372
496.41        17.37812
496.85        17.51715
497.29        17.65598
497.73         17.8633
498.17        18.10122
498.61        18.23847
499.05         18.2686
499.49        18.25325
499.93        18.24131
500.37        18.32575
500.82        18.48598
501.26        18.57869
501.70        18.59453
502.14        18.63069
502.58        18.70707
503.02        18.80326
503.46        18.92026
503.90         19.0635
504.34        19.20512
504.78        19.29772
505.22        19.33228
505.66        19.31823
506.10        19.27843
506.54         19.2953
506.98        19.39095
507.42        19.46523
507.86        19.47775
508.30         19.7877
508.74        19.69342
509.18        19.76434
509.62        19.80439
510.06        19.84909
510.50        19.89873
510.94        19.95033
511.38         20.0057
511.82        20.04937
512.26        20.07973
512.70        20.10367
513.14         20.1167
513.58        20.11158
514.02        20.08894
514.46        20.04846
514.90        20.00998
515.34        20.00567
515.78        20.04121
516.22        20.11037
516.66        20.17825
517.10        20.18849
517.54        20.13218
517.98        20.02698
518.42        19.92086
518.86         19.8903
519.30        19.95051
519.74        20.07587
520.18        20.21529
520.62        20.28549
521.06         20.2638
521.50        20.17549
521.93        20.05916
522.37        19.97947
522.81        19.95211
523.25        19.95453
523.69        19.96356
524.13        19.94328
524.57        19.88564
525.01        19.81034
525.45        19.72708
525.89        19.64856
526.32        19.58037
526.76        19.51706
527.20        19.47104
527.64        19.46436
528.08        19.49622
528.52        19.56045
528.96        19.61973
529.40        19.61465
529.83        19.53164
530.27        19.39119
530.71        19.23961
531.15        19.15233
531.59        19.14501
532.03        19.19652
532.46        19.25818
532.90         19.2518
533.34        19.16325
533.78        19.02453
534.22        18.88269
534.66        18.80471
535.09        18.80079
535.53        18.84725
535.97        18.91361
536.41        18.93796
536.85        18.90281
537.28        18.87972
537.72        18.87024
538.16        18.75716
538.60          18.608
539.04         18.6745
539.47        18.91317
539.91        19.04055
540.35        19.03603
540.79        19.06462
541.22        19.13014
541.66        19.17922
542.10        19.21741
542.54        19.23144
542.97        19.24744
543.41        19.38313
543.85        19.61032
544.29        19.77083
544.72        19.85142
545.16        19.97277
545.60        20.13031
546.04         20.2522
546.47        20.34744
546.91        20.46843
547.35        20.61851
547.79        20.78813
548.22        20.96651
548.66        21.13653
549.10         21.3008
549.53        21.51551
549.97        21.75669
550.41        21.93529
550.84        22.03756
551.28        22.10954
551.72        22.17018
552.15         22.2335
552.59        22.32227
553.03        22.42535
553.46        22.53779
553.90        22.68185
554.34        22.84423
554.77        22.99594
555.21        23.14061
555.65        23.30235
556.08         23.4733
556.52        23.63914
556.96        23.77744
557.39         23.8776
557.83        23.94652
558.27        23.95842
558.70        23.94662
559.14        24.02122
559.57         24.1662
560.01        24.27033
560.45        24.32511
560.88        24.39951
561.32        24.50189
561.75        24.58482
562.19        24.66758
562.63        24.71799
563.06        24.74818
563.50        24.92048
563.93        25.17118
564.37        25.15596
564.80        24.94488
565.24        25.01888
565.68        25.34672
566.11        25.54003
566.55        25.59229
566.98        25.70305
567.42        25.86959
567.85        26.06916
568.29        26.12251
568.72        26.19524
569.16        26.29917
569.60        26.43751
570.03        26.60095
570.47         26.8927
570.90        27.27429
571.34        27.13086
571.77        27.66998
572.21        27.37836
572.64        27.45621
573.08        27.37146
573.51        27.99102
573.95        28.08789
574.38        27.93996
574.82        27.77708
