SpectraSmart Spectrum 2.9.0.0
--------- Device Information -----------
Spectrum Name :  反射率_0
Saving Time :  2024/05/03 20:38:30
Spectro-Module Model Name : SE2030-DUVN
Spectro-Module Serial Number : OS361AC55029948
Wavelength Start : 200
Wavelength End : 1025
Wavelength Unit : Wavelength(nm)
Spectrum Unit : Reflectance(%)
-----------Spectrum Setting ------------
Integration Time : 20ms
Average : 10
Boxcar : 0
Background removal :  enabled
linearity correction :  enabled
SC :  disabled
Intensity correction :  disabled
DWT denoise :  enabled
savitzky-golay :  disabled
FFT :  disabled
Running average :  disabled
Kalman :  disabled
High pass :  disabled
---------------BEGIN--------------------
Wavelength(nm)             Reflectance(%)
200.29               0
200.75        14.80227
201.21         20.1316
201.67       -334.4609
202.13        2.205656
202.58        11.06614
203.04        16.53279
203.50        20.40109
203.96        22.55288
204.42        23.45894
204.88        24.33651
205.34       -2.786719
205.80        17.77694
206.26        10.35566
206.72       -4634.742
207.18        46.31297
207.64        44.75998
208.10        55.46365
208.55        100.5953
209.01        526.3564
209.47        690.7148
209.93        107.9261
210.39        49.11562
210.85        33.63038
211.31        30.18947
211.77        32.42498
212.23        42.66878
212.69        69.21902
213.14        77.94212
213.60        32.45465
214.06        8.367225
214.52       0.2171302
214.98       -1.636728
215.44       0.2457485
215.90        11.46281
216.36       -171.0749
216.81       -51.27863
217.27       -63.90552
217.73       -123.4075
218.19       -465.9138
218.65       -9180.431
219.11       -625.0982
219.57       -144.7146
220.02       -69.81973
220.48       -129.3954
220.94        199.7707
221.40        80.42948
221.86         63.5134
222.32        59.40225
222.77         59.8534
223.23        64.68568
223.69        73.46246
224.15        78.15596
224.61        73.80407
225.06        66.13528
225.52        63.02091
225.98        68.53381
226.44          82.889
226.90        106.2329
227.36        135.4497
227.81        154.0496
228.27        151.2578
228.73        135.7822
229.19        117.4376
229.65        103.7187
230.10        94.99911
230.56        89.47992
231.02        86.22419
231.48         84.8447
231.93        84.72411
232.39        85.98047
232.85        87.81131
233.31        89.20592
233.77        89.86044
234.22        89.75226
234.68        89.28409
235.14        89.24178
235.60        89.81932
236.05        91.03295
236.51        91.75478
236.97        90.31177
237.43        86.55506
237.88        81.42968
238.34        76.84216
238.80        74.79787
239.26        75.75336
239.71        81.49718
240.17        91.23055
240.63        100.8158
241.08        101.2218
241.54        90.20892
242.00        76.98808
242.46        70.93519
242.91        73.12587
243.37         83.5715
243.83         103.941
244.28        120.5153
244.74        107.2602
245.20        71.13751
245.66        34.81612
246.11        13.30882
246.57        4.988611
247.03        4.059995
247.48        6.643098
247.94        8.844584
248.40        10.05269
248.85        11.13958
249.31        12.69429
249.77        14.48977
250.22        16.18756
250.68        17.43082
251.14        18.87846
251.59        21.87269
252.05        27.47558
252.51        37.09365
252.96        51.95684
253.42        67.96706
253.88        77.33865
254.33        78.68075
254.79        75.01926
255.25        69.88297
255.70        65.45451
256.16        62.61337
256.62        61.22469
257.07        61.30059
257.53        62.75162
257.99        64.67432
258.44        66.47699
258.90        68.03275
259.35        68.73693
259.81        69.23684
260.27        69.10542
260.72        67.95226
261.18        66.46812
261.63        64.66722
262.09        63.29806
262.55        62.66631
263.00        62.60048
263.46        62.96576
263.91        63.36102
264.37        63.57256
264.83        63.45378
265.28        63.10806
265.74        62.63166
266.19        61.82681
266.65        60.86763
267.11        59.69773
267.56        58.57418
268.02        57.99905
268.47        57.95066
268.93        58.33912
269.38        58.72911
269.84        58.37809
270.30        57.19379
270.75        55.45304
271.21        53.77311
271.66        52.90324
272.12         52.9751
272.57        53.63956
273.03          54.455
273.48        54.72418
273.94        54.26623
274.39        53.32763
274.85        52.11155
275.31        50.76598
275.76        49.40028
276.22        48.07078
276.67        46.92134
277.13        46.32724
277.58        46.19063
278.04        46.43295
278.49        46.67527
278.95        46.40217
279.40        45.47696
279.86        44.19981
280.31        42.80623
280.77        41.76554
281.22        41.04595
281.68        40.57986
282.13        40.15328
282.59        39.57159
283.04         38.7748
283.50        37.89232
283.95        37.05979
284.41        36.51989
284.86        36.26873
285.32        36.24494
285.77        36.24602
286.22        36.05353
286.68         35.6348
287.13        35.03098
287.59        34.41045
288.04        33.93462
288.50        33.66651
288.95        33.51897
289.41        33.40061
289.86           33.12
290.32        32.67725
290.77         32.1189
291.22        31.59218
291.68        31.28379
292.13         31.2039
292.59        31.30968
293.04        31.45918
293.50        31.45091
293.95        31.23623
294.40        30.89738
294.86        30.58745
295.31         30.5144
295.77        30.71917
296.22        31.11684
296.68        31.57852
297.13         31.8954
297.58        31.99827
298.04        31.97659
298.49        31.88143
298.95        31.82875
299.40         31.8376
299.85        31.87368
300.31        31.97181
300.76        32.16234
301.21        32.44283
301.67        32.80156
302.12        33.12769
302.58        33.26957
303.03        33.19003
303.48        32.95504
303.94        32.70029
304.39        32.56967
304.84        32.61504
305.30        32.78067
305.75        32.97732
306.20         33.1011
306.66        33.12863
307.11        33.07331
307.57        32.97925
308.02         32.8446
308.47        32.70045
308.93        32.55164
309.38        32.39265
309.83         32.2551
310.29        32.14762
310.74        32.05638
311.19        31.98892
311.65        31.95168
312.10        31.92568
312.55        31.89628
313.00        31.83096
313.46        31.68475
313.91        31.44117
314.36        31.13609
314.82        30.79265
315.27        30.43654
315.72        30.09945
316.18        29.78425
316.63        29.53546
317.08        29.42363
317.53        29.45077
317.99        29.58392
318.44        29.75389
318.89        29.82874
319.35        29.76551
319.80          29.594
320.25        29.34917
320.70        29.09945
321.16        28.86483
321.61        28.62923
322.06        28.39454
322.51        28.16913
322.97        27.95526
323.42        27.77367
323.87        27.60551
324.32        27.41467
324.78        27.19296
325.23        26.95464
325.68        26.73418
326.13        26.59528
326.59        26.54016
327.04        26.56334
327.49        26.60452
327.94        26.57372
328.39        26.44485
328.85        26.23384
329.30        26.00052
329.75        25.82336
330.20        25.72913
330.66        25.68497
331.11        25.66986
331.56        25.61357
332.01        25.49823
332.46        25.34837
332.92        25.18007
333.37        25.05065
333.82        24.96528
334.27        24.90798
334.72        24.87367
335.17        24.85539
335.63        24.83825
336.08         24.8401
336.53        24.83652
336.98        24.79802
337.43        24.71836
337.88        24.60144
338.34        24.47368
338.79        24.38346
339.24        24.34285
339.69        24.34557
340.14        24.35953
340.59        24.33109
341.05        24.25004
341.50        24.13549
341.95        24.03213
342.40        24.01528
342.85        24.09736
343.30        24.24927
343.75        24.41068
344.20        24.48635
344.66        24.46024
345.11        24.36007
345.56        24.23662
346.01        24.16525
346.46        24.17032
346.91        24.22713
347.36        24.31995
347.81        24.42658
348.26        24.53131
348.72         24.6369
349.17        24.72673
349.62        24.77966
350.07         24.7909
350.52         24.7663
350.97        24.70659
351.42        24.61824
351.87        24.50864
352.32        24.37632
352.77        24.25079
353.22        24.17785
353.67        24.16291
354.13        24.20011
354.58        24.22841
355.03        24.17074
355.48        24.01661
355.93        23.79783
356.38        23.57012
356.83        23.42248
357.28        23.37383
357.73        23.38725
358.18        23.42931
358.63        23.44615
359.08        23.41506
359.53        23.35496
359.98        23.25095
360.43        23.07983
360.88        22.84743
361.33        22.56071
361.78        22.27507
362.23        22.07719
362.68        21.98383
363.13        21.97476
363.58        21.98661
364.03          21.915
364.48        21.73677
364.93        21.48362
365.38        21.22204
365.83        21.05327
366.28        20.99983
366.73        21.03024
367.18        21.07955
367.63        21.04546
368.08        20.90286
368.53        20.68281
368.98        20.45205
369.43        20.31065
369.88        20.27702
370.33        20.31663
370.78        20.35811
371.23        20.28501
371.68         20.0707
372.13        19.75907
372.58        19.42505
373.03        19.17789
373.48        19.04568
373.93        18.99671
374.38        18.98419
374.83        18.93181
375.28        18.81649
375.72        18.65583
376.17        18.49901
376.62        18.38314
377.07        18.31521
377.52        18.27697
377.97        18.23986
378.42        18.16387
378.87        18.04331
379.32        17.89636
379.77         17.7548
380.22        17.65996
380.67        17.61723
381.11        17.61513
381.56        17.61831
382.01        17.58199
382.46        17.49475
382.91         17.3727
383.36        17.24192
383.81        17.13844
384.26        17.07042
384.71        17.02736
385.15        16.98521
385.60        16.92435
386.05        16.83192
386.50        16.71287
386.95        16.59349
387.40        16.51015
387.85         16.4714
388.29         16.4661
388.74         16.4656
389.19         16.3902
389.64        16.23136
390.09        16.00568
390.54        15.80227
390.98        15.74844
391.43        15.86451
391.88        16.12707
392.33        16.40006
392.78        16.40531
393.23        16.16274
393.67          15.907
394.12        15.72536
394.57        15.58361
395.02        15.50813
395.47        15.53739
395.91        15.63008
396.36        15.66567
396.81        15.62844
397.26        15.56834
397.71        15.48651
398.15        15.40057
398.60        15.34165
399.05        15.20483
399.50        15.05334
399.95        15.15576
400.39        15.44213
400.84        15.46354
401.29        15.21661
401.74        15.06523
402.18        15.02329
402.63        14.88583
403.08        14.70401
403.53        14.54105
403.97        14.62246
404.42        14.72649
404.87        14.86814
405.32        14.96693
405.76        14.99567
406.21        14.97962
406.66        14.93018
407.11         14.8715
407.55        14.81721
408.00         14.7544
408.45        14.68763
408.90        14.62519
409.34        14.57171
409.79        14.53104
410.24        14.50839
410.68        14.50372
411.13        14.51715
411.58          14.548
412.03        14.57966
412.47        14.58702
412.92        14.55737
413.37         14.4945
413.81        14.42274
414.26        14.39378
414.71        14.40829
415.15        14.46398
415.60        14.50783
416.05        14.46323
416.49        14.31968
416.94        14.11092
417.39         13.9151
417.83        13.84306
418.28        13.91316
418.73        14.08457
419.17        14.28915
419.62        14.40119
420.07        14.38387
420.51        14.27525
420.96        14.12104
421.41        13.97865
421.85        13.86526
422.30        13.77215
422.74        13.69782
423.19        13.68366
423.64        13.71655
424.08        13.77268
424.53        13.82102
424.98         13.8632
425.42         13.8965
425.87        13.87457
426.31        13.81775
426.76        13.84665
427.21        13.92742
427.65        13.86114
428.10        13.69513
428.54        13.64482
428.99        13.72875
429.44        13.91306
429.88        14.08812
430.33        14.00584
430.77        13.72433
431.22        13.57022
431.66        13.58846
432.11        13.68287
432.56        13.80688
433.00        13.92968
433.45        13.91709
433.89        13.77629
434.34        13.12155
434.78        13.05566
435.23        13.45883
435.67        13.56684
436.12        13.38043
436.57        13.32194
437.01        13.41381
437.46        13.45975
437.90        13.45305
438.35         13.4515
438.79        13.44336
439.24        13.40047
439.68        13.33166
440.13        13.27777
440.57        13.24232
441.02        13.21731
441.46        13.20147
441.91         13.1892
442.35        13.17092
442.80        13.22868
443.24        13.31682
443.69        13.28898
444.13         13.1626
444.58        13.10529
445.02         13.1273
445.47        13.13508
445.91        13.12503
446.36         13.1407
446.80        13.17631
447.24        13.22442
447.69        13.26801
448.13        13.27843
448.58        13.25262
449.02        13.19627
449.47        13.13614
449.91        13.10667
450.36        13.11756
450.80        13.15428
451.25        13.19395
451.69        13.19458
452.13        13.14872
452.58        13.07278
453.02        12.98673
453.47        12.92792
453.91        12.90614
454.36        12.90907
454.80        12.92233
455.24        12.94173
455.69         12.9674
456.13        12.95677
456.58        12.91377
457.02        12.99591
457.46        12.99449
457.91        12.95122
458.35        12.83279
458.79        12.81661
459.24        12.89116
459.68        12.89704
460.13        12.84916
460.57        12.83461
461.01        12.86313
461.46        12.88139
461.90        12.88302
462.34        12.87303
462.79        12.84844
463.23        12.80717
463.68        12.77345
464.12        12.77469
464.56        12.81245
465.01        12.91117
465.45        13.01579
465.89        13.00871
466.34         12.9191
466.78         12.8893
467.22        12.93327
467.67        12.95714
468.11        12.95342
468.55        12.93026
468.99        12.89343
469.44        12.86828
469.88        12.85895
470.32        12.83862
470.77        12.81658
471.21        12.82759
471.65         12.8708
472.10        12.93186
472.54        12.98892
472.98         13.0164
473.42        13.00818
473.87        12.97938
474.31        12.93082
474.75        12.87702
475.20        12.83053
475.64         12.7812
476.08        12.74068
476.52         12.7443
476.97        12.79687
477.41        12.85548
477.85        12.88425
478.29        13.06992
478.74        12.96815
479.18        13.03131
479.62        13.12293
480.06        13.17036
480.50         13.1669
480.95        13.16551
481.39        13.17146
481.83        13.17707
482.27        13.19384
482.72        13.24129
483.16        13.29826
483.60        13.34012
484.04        13.37251
484.48        13.33168
484.93         13.3005
485.37        13.52056
485.81        13.93546
486.25        14.05298
486.69        13.98469
487.14        13.87331
487.58        14.02757
488.02        13.99565
488.46        14.23186
488.90        13.99072
489.34        13.51812
489.79        13.50109
490.23        13.91998
490.67        14.24542
491.11         14.3637
491.55        14.28487
491.99         14.0895
492.43         14.0689
492.88        14.25038
493.32        14.42502
493.76        14.54229
494.20        14.64346
494.64        14.71996
495.08        14.76167
495.52        14.78515
495.96        14.83121
496.41        14.90833
496.85        14.97576
497.29        15.04804
497.73        15.20213
498.17        15.40734
498.61         15.5497
499.05         15.6007
499.49        15.57403
499.93        15.50572
500.37        15.48697
500.82        15.53203
501.26        15.57304
501.70        15.61265
502.14        15.71252
502.58        15.85633
503.02        15.97467
503.46        16.05345
503.90        16.11312
504.34        16.14938
504.78        16.15456
505.22        16.13468
505.66        16.09052
506.10        16.03616
506.54        16.03246
506.98        16.09495
507.42        16.14388
507.86        16.15133
508.30        16.42168
508.74        16.37135
509.18        16.46781
509.62        16.53315
510.06        16.57466
510.50        16.58915
510.94        16.58187
511.38        16.57203
511.82        16.57676
512.26        16.60253
512.70          16.645
513.14        16.68935
513.58        16.71128
514.02        16.70538
514.46        16.67925
514.90         16.6476
515.34        16.63363
515.78        16.64449
516.22        16.67496
516.66        16.71048
517.10        16.72865
517.54         16.7239
517.98        16.70069
518.42          16.678
518.86        16.68577
519.30        16.72816
519.74         16.7953
520.18        16.85629
520.62        16.86172
521.06         16.8025
521.50        16.69543
521.93        16.57862
522.37        16.51381
522.81        16.51378
523.25        16.55838
523.69        16.61512
524.13        16.63185
524.57        16.59602
525.01        16.52816
525.45        16.44778
525.89        16.38499
526.32        16.34966
526.76        16.33198
527.20        16.33114
527.64        16.34851
528.08        16.37944
528.52        16.42307
528.96        16.46209
529.40        16.46834
529.83        16.43367
530.27        16.36775
530.71        16.28899
531.15        16.22952
531.59        16.19771
532.03        16.18727
532.46        16.18125
532.90        16.15251
533.34         16.0983
533.78        16.03201
534.22        15.97316
534.66        15.94864
535.09        15.95933
535.53        15.99463
535.97        16.03889
536.41        16.05544
536.85        16.03489
537.28        16.03255
537.72        16.04445
538.16        15.96304
538.60        15.84309
539.04        15.90098
539.47        16.10525
539.91        16.22214
540.35        16.23416
540.79        16.27786
541.22         16.3463
541.66        16.37829
542.10        16.37612
542.54        16.33504
542.97        16.28951
543.41        16.35759
543.85        16.52038
544.29        16.64049
544.72        16.69989
545.16        16.78851
545.60        16.89901
546.04        16.97462
546.47        17.02822
546.91        17.11161
547.35        17.22926
547.79        17.36953
548.22        17.51689
548.66        17.64802
549.10         17.7627
549.53        17.90978
549.97        18.07545
550.41         18.1962
550.84        18.26371
551.28        18.31371
551.72        18.35434
552.15        18.38553
552.59        18.42423
553.03        18.46526
553.46         18.5144
553.90        18.60416
554.34        18.72647
554.77         18.8542
555.21        18.97956
555.65          19.105
556.08        19.22139
556.52        19.32338
556.96         19.4061
557.39         19.4819
557.83        19.55879
558.27        19.60519
558.70        19.63516
559.14        19.71828
559.57         19.8361
560.01        19.90558
560.45        19.92248
560.88        19.95112
561.32        20.00386
561.75        20.02831
562.19        20.05365
562.63        20.10458
563.06        20.17752
563.50           20.33
563.93        20.51019
564.37        20.49446
564.80        20.33931
565.24        20.40285
565.68        20.65334
566.11        20.78203
566.55        20.78499
566.98        20.82166
567.42        20.90915
567.85        21.05909
568.29        21.13372
568.72        21.25415
569.16        21.38101
569.60        21.52168
570.03        21.67385
570.47        21.78666
570.90        21.84367
571.34        22.06605
571.77        22.27013
572.21        22.18834
572.64        22.40538
573.08        22.29538
573.51        22.75759
573.95        22.80816
574.38        22.72324
574.82        22.63405
