SpectraSmart Spectrum 2.9.0.0
--------- Device Information -----------
Spectrum Name :  反射率_0
Saving Time :  2024/05/03 20:39:57
Spectro-Module Model Name : SE2030-DUVN
Spectro-Module Serial Number : OS361AC55029948
Wavelength Start : 200
Wavelength End : 1025
Wavelength Unit : Wavelength(nm)
Spectrum Unit : Reflectance(%)
-----------Spectrum Setting ------------
Integration Time : 20ms
Average : 10
Boxcar : 0
Background removal :  enabled
linearity correction :  enabled
SC :  disabled
Intensity correction :  disabled
DWT denoise :  enabled
savitzky-golay :  disabled
FFT :  disabled
Running average :  disabled
Kalman :  disabled
High pass :  disabled
---------------BEGIN--------------------
Wavelength(nm)             Reflectance(%)
200.29               0
200.75        47.68465
201.21        74.29122
201.67       -1796.809
202.13       -55.15294
202.58       -33.53637
203.04       -28.82029
203.50       -29.21163
203.96       -33.52172
204.42       -44.37716
204.88       -88.03862
205.34        1410.511
205.80        96.89976
206.26        50.24113
206.72       -4879.702
207.18        63.69906
207.64        47.43088
208.10        27.90833
208.55        -30.9379
209.01       -647.4772
209.47       -1119.676
209.93       -142.4166
210.39       -36.04173
210.85       -4.887375
211.31        7.050791
211.77        13.06059
212.23        19.06891
212.69        28.54833
213.14        31.51983
213.60         15.3426
214.06        6.349391
214.52        2.361533
214.98      -0.7647065
215.44        -6.01437
215.90       -24.22881
216.36        202.1646
216.81        32.39035
217.27        13.58757
217.73       -15.02634
218.19       -153.3781
218.65       -3561.256
219.11        -199.002
219.57       -13.15443
220.02        22.77449
220.48        43.64912
220.94        3.150291
221.40        21.70188
221.86        25.56616
222.32        27.35235
222.77        28.68472
223.23        30.79013
223.69        33.19727
224.15        32.27116
224.61        27.52066
225.06        22.36119
225.52        19.58971
225.98        19.95536
226.44         23.0945
226.90          29.041
227.36        37.13984
227.81        43.14196
228.27        43.85714
228.73        41.07648
229.19        37.11912
229.65        33.90315
230.10        31.66178
230.56        30.15975
231.02        29.13128
231.48        28.48181
231.93        28.13787
232.39        28.12531
232.85        28.52042
233.31        29.45213
233.77        30.88727
234.22        32.72691
234.68        34.67041
235.14        36.17996
235.60        37.08436
236.05        37.51088
236.51        37.56954
236.97        37.71473
237.43        38.05344
237.88        38.53491
238.34        39.09865
238.80        39.57665
239.26        39.95545
239.71        42.47878
240.17        43.92662
240.63        45.88686
241.08        45.37403
241.54        41.87334
242.00        38.01358
242.46        36.29219
242.91        36.91329
243.37        39.74777
243.83        44.76476
244.28        46.03809
244.74        35.97658
245.20        19.14836
245.66         4.13412
246.11       -5.182091
246.57       -9.309389
247.03       -9.705033
247.48       -7.575638
247.94       -4.201589
248.40       0.1725766
248.85        5.083781
249.31        11.00334
249.77        16.44682
250.22        19.81763
250.68        21.63496
251.14        21.87462
251.59        20.49688
252.05        17.69868
252.51        13.05934
252.96        8.235502
253.42        10.44878
253.88        22.58887
254.33        38.43233
254.79         50.1694
255.25        53.27826
255.70        50.98119
256.16        47.57637
256.62          44.742
257.07        43.40318
257.53        43.48573
257.99        44.05434
258.44        44.54824
258.90        44.81514
259.35        44.54193
259.81        44.30709
260.27        43.97576
260.72        43.43842
261.18        42.98199
261.63        42.39656
262.09        41.99629
262.55        41.83634
263.00        41.80751
263.46         41.9222
263.91        41.88972
264.37         41.5405
264.83        40.83684
265.28         39.8818
265.74        38.93986
266.19        38.15265
266.65        37.61967
267.11        37.19997
267.56        36.79854
268.02        36.35911
268.47        35.81689
268.93        35.23904
269.38        34.59403
269.84        33.83757
270.30        33.03114
270.75        32.19855
271.21        31.53234
271.66        31.22317
272.12        31.27775
272.57         31.5756
273.03        31.89595
273.48        31.90403
273.94        31.52742
274.39         30.8829
274.85        30.10425
275.31        29.30395
275.76        28.53998
276.22        27.83033
276.67        27.24494
277.13          26.979
277.58        26.96617
278.04        27.16977
278.49        27.33923
278.95        27.13477
279.40        26.48572
279.86        25.60453
280.31         24.6855
280.77        24.07824
281.22        23.76673
281.68        23.67364
282.13        23.64451
282.59        23.51541
283.04        23.23201
283.50        22.88353
283.95        22.52682
284.41        22.26276
284.86        22.09654
285.32        22.00265
285.77        21.93541
286.22        21.88587
286.68        21.85099
287.13        21.82164
287.59        21.79642
288.04        21.72473
288.50        21.62399
288.95        21.48395
289.41        21.36613
289.86        21.32609
290.32        21.39179
290.77         21.5257
291.22        21.68633
291.68        21.80494
292.13        21.86431
292.59        21.91208
293.04        21.98279
293.50        22.15019
293.95        22.42117
294.40        22.76617
294.86        23.17603
295.31        23.63943
295.77        24.14646
296.22        24.69295
296.68        25.23046
297.13        25.67406
297.58        25.99751
298.04        26.23952
298.49        26.43446
298.95        26.67561
299.40        26.97418
299.85        27.30675
300.31        27.69477
300.76        28.14108
301.21        28.63993
301.67        29.19039
302.12        29.69203
302.58        30.00886
303.03        30.10891
303.48        30.04215
303.94        29.96132
304.39        30.04319
304.84        30.33721
305.30        30.78262
305.75        31.23326
306.20        31.49011
306.66        31.52182
307.11        31.38211
307.57        31.20095
308.02        31.10884
308.47        31.15652
308.93        31.29604
309.38        31.45094
309.83        31.54311
310.29        31.54759
310.74        31.48439
311.19        31.38299
311.65        31.28459
312.10        31.19181
312.55        31.08467
313.00        30.94478
313.46        30.75142
313.91        30.49282
314.36        30.19981
314.82         29.8926
315.27        29.58573
315.72        29.30283
316.18        29.05013
316.63        28.84597
317.08        28.72112
317.53        28.67348
317.99        28.67814
318.44        28.71653
318.89        28.74392
319.35        28.73474
319.80        28.69222
320.25        28.58681
320.70        28.38227
321.16        28.07444
321.61        27.68001
322.06        27.25454
322.51        26.89769
322.97        26.63812
323.42        26.46329
323.87        26.32211
324.32        26.12742
324.78        25.85151
325.23         25.5271
325.68        25.19006
326.13        24.90294
326.59        24.67734
327.04        24.51079
327.49        24.36623
327.94        24.19369
328.39        23.97962
328.85        23.73302
329.30        23.50247
329.75        23.34573
330.20        23.27554
330.66        23.26034
331.11         23.2608
331.56        23.18131
332.01        22.99965
332.46         22.7457
332.92        22.45669
333.37        22.22763
333.82        22.07696
334.27        21.97725
334.72        21.91862
335.17        21.88281
335.63        21.84744
336.08        21.83409
336.53        21.79977
336.98         21.6818
337.43        21.47158
337.88        21.18412
338.34        20.88414
338.79        20.68195
339.24        20.60637
339.69        20.63514
340.14        20.70329
340.59        20.70216
341.05        20.60279
341.50         20.4345
341.95        20.26263
342.40        20.19643
342.85        20.25615
343.30        20.40164
343.75        20.54683
344.20        20.55745
344.66        20.41384
345.11        20.16348
345.56        19.89682
346.01        19.74817
346.46        19.75233
346.91        19.86234
347.36        20.02664
347.81        20.16602
348.26        20.24872
348.72        20.29603
349.17        20.30704
349.62        20.28592
350.07        20.23784
350.52        20.15761
350.97        20.05302
351.42        19.94261
351.87        19.83387
352.32         19.7269
352.77        19.62781
353.22        19.54279
353.67        19.47156
354.13        19.41846
354.58        19.36153
355.03        19.28199
355.48        19.17996
355.93        19.06957
356.38        18.96386
356.83        18.88398
357.28        18.83556
357.73        18.80483
358.18        18.80047
358.63        18.83694
359.08        18.90597
359.53        18.99745
359.98        19.06027
360.43        19.01727
360.88        18.85554
361.33        18.59762
361.78        18.30951
362.23        18.09357
362.68        17.97751
363.13        17.94134
363.58        17.92761
364.03        17.84237
364.48        17.66657
364.93        17.43002
365.38        17.20596
365.83        17.10388
366.28        17.14187
366.73        17.28188
367.18        17.43069
367.63        17.44017
368.08        17.27709
368.53        16.98933
368.98        16.67749
369.43        16.49397
369.88        16.47545
370.33        16.57897
370.78        16.71938
371.23        16.75318
371.68         16.6394
372.13        16.42088
372.58        16.18098
373.03        16.04526
373.48        16.03936
373.93        16.11998
374.38        16.20254
374.83        16.15199
375.28        15.93956
375.72        15.61281
376.17        15.27616
376.62        15.04767
377.07        14.95392
377.52         14.9562
377.97        14.99666
378.42        14.98287
378.87        14.89154
379.32        14.75692
379.77         14.6218
380.22          14.544
380.67        14.53279
381.11        14.56494
381.56        14.60276
382.01        14.59759
382.46        14.53546
382.91        14.43686
383.36        14.32378
383.81        14.22492
384.26        14.15018
384.71        14.09196
385.15        14.04183
385.60        14.00391
386.05         13.9688
386.50        13.93282
386.95        13.89919
387.40        13.87044
387.85        13.84601
388.29        13.82204
388.74        13.78962
389.19        13.70354
389.64        13.56212
390.09        13.37622
390.54         13.2058
390.98        13.13453
391.43        13.17933
391.88        13.33239
392.33        13.50806
392.78        13.51418
393.23        13.36892
393.67        13.24874
394.12        13.19677
394.57        13.13862
395.02         13.0838
395.47         13.0756
395.91        13.10068
396.36        13.09505
396.81        13.05586
397.26        13.01284
397.71          12.948
398.15        12.84762
398.60        12.73711
399.05        12.54775
399.50        12.35167
399.95         12.3926
400.39        12.61822
400.84        12.65287
401.29        12.48904
401.74        12.41655
402.18        12.44084
402.63        12.39353
403.08         12.3022
403.53        12.19823
403.97        12.26567
404.42        12.31938
404.87        12.38963
405.32        12.43906
405.76        12.45278
406.21        12.44746
406.66        12.41327
407.11        12.33793
407.55        12.22834
408.00        12.08517
408.45        11.94253
408.90        11.86033
409.34         11.8538
409.79        11.90396
410.24        11.97825
410.68        12.02456
411.13        12.02941
411.58        12.00695
412.03        11.95888
412.47        11.89439
412.92         11.8193
413.37        11.73159
413.81        11.64949
414.26        11.61153
414.71         11.6152
415.15        11.65858
415.60        11.70244
416.05        11.68693
416.49        11.60045
416.94        11.46747
417.39        11.33279
417.83        11.26073
418.28          11.264
418.73        11.31699
419.17        11.39487
419.62        11.44971
420.07        11.46435
420.51        11.45238
420.96        11.41576
421.41         11.3487
421.85        11.25322
422.30         11.1391
422.74        11.02812
423.19        10.98759
423.64        11.01445
424.08        11.07859
424.53        11.13871
424.98        11.17062
425.42        11.16488
425.87        11.09461
426.31        10.99201
426.76        10.97722
427.21        11.02859
427.65        10.98115
428.10        10.86103
428.54        10.82098
428.99         10.8715
429.44         10.9947
429.88        11.10971
430.33        11.02806
430.77        10.79842
431.22         10.6745
431.66        10.69501
432.11        10.78579
432.56        10.90975
433.00         11.0569
433.45        11.11046
433.89        11.01602
434.34        10.47582
434.78        10.45307
435.23        10.84366
435.67        10.95043
436.12        10.77006
436.57        10.69447
437.01        10.74249
437.46        10.73878
437.90        10.68223
438.35        10.62343
438.79        10.57036
439.24        10.52507
439.68        10.49546
440.13        10.50644
440.57        10.52893
441.02        10.50304
441.46        10.42257
441.91        10.30863
442.35        10.19349
442.80         10.1945
443.24        10.28405
443.69        10.32646
444.13        10.31516
444.58        10.34827
445.02        10.41916
445.47        10.46416
445.91         10.4685
446.36        10.44875
446.80        10.40418
447.24        10.33524
447.69        10.26422
448.13        10.22782
448.58        10.23566
449.02        10.27456
449.47        10.32971
449.91        10.37058
450.36        10.38908
450.80        10.39155
451.25        10.37877
451.69        10.34853
452.13        10.30473
452.58        10.24863
453.02        10.19068
453.47        10.15397
453.91        10.14281
454.36        10.15104
454.80        10.16528
455.24        10.17608
455.69        10.18313
456.13        10.15442
456.58        10.09739
457.02          10.142
457.46        10.12734
457.91        10.08407
458.35        9.985327
458.79        9.966888
459.24        10.01891
459.68        10.01775
460.13         9.97424
460.57        9.953213
461.01        9.962435
461.46        9.960605
461.90        9.945241
462.34        9.923036
462.79        9.892674
463.23        9.851196
463.68        9.817479
464.12        9.812355
464.56        9.836755
465.01        9.909509
465.45        9.985961
465.89        9.971122
466.34        9.888126
466.78        9.848863
467.22        9.867938
467.67         9.88157
468.11        9.885981
468.55        9.883446
468.99        9.878517
469.44        9.891194
469.88        9.922215
470.32        9.950173
470.77        9.970161
471.21        9.989451
471.65        10.00541
472.10        10.01418
472.54        10.01756
472.98        10.02564
473.42        10.04013
473.87        10.06308
474.31        10.08071
474.75        10.08143
475.20        10.06875
475.64         10.0421
476.08        10.01583
476.52        10.02604
476.97        10.07894
477.41        10.13553
477.85        10.16952
478.29        10.33204
478.74        10.27267
479.18        10.35248
479.62        10.45409
480.06        10.50356
480.50        10.49434
480.95        10.47251
481.39        10.46513
481.83        10.50137
482.27        10.59581
482.72        10.75439
483.16         10.9231
483.60         11.0254
484.04        11.05526
484.48        10.96679
484.93        10.87802
485.37        11.05823
485.81        11.47873
486.25        11.63786
486.69        11.67718
487.14        11.49719
487.58        11.99895
488.02        11.69995
488.46        11.91425
488.90        11.73843
489.34        11.46786
489.79        11.56008
490.23        11.92871
490.67        12.31112
491.11        12.56939
491.55        12.53596
491.99        12.29433
492.43         12.2528
492.88        12.44916
493.32        12.62462
493.76        12.73691
494.20        12.86019
494.64        12.98734
495.08        13.09602
495.52        13.20061
495.96        13.33464
496.41         13.4993
496.85        13.65891
497.29        13.80226
497.73        13.96294
498.17        14.11019
498.61        14.15087
499.05         14.1056
499.49         14.0628
499.93         14.0707
500.37        14.18952
500.82        14.38574
501.26        14.51727
501.70        14.56535
502.14        14.61341
502.58        14.68194
503.02         14.7631
503.46        14.86077
503.90        14.97498
504.34        15.08375
504.78        15.15137
505.22        15.17213
505.66        15.15603
506.10        15.12237
506.54        15.13642
506.98        15.21576
507.42        15.28108
507.86        15.30167
508.30        15.56095
508.74        15.50698
509.18        15.58785
509.62        15.64356
510.06        15.69339
510.50        15.73659
510.94        15.77245
511.38        15.81329
511.82        15.86505
512.26        15.92838
512.70        16.00105
513.14        16.06328
513.58        16.08447
514.02        16.05951
514.46        15.99641
514.90        15.92331
515.34        15.88622
515.78        15.89735
516.22         15.9471
516.66        16.00375
517.10        16.01573
517.54        15.97319
517.98        15.89239
518.42        15.81266
518.86        15.79577
519.30        15.85325
519.74        15.96295
520.18        16.08006
520.62        16.13283
521.06        16.10277
521.50         16.0127
521.93        15.90044
522.37         15.8272
522.81        15.80917
523.25        15.82754
523.69         15.8584
524.13        15.86415
524.57        15.83538
525.01        15.78771
525.45        15.73576
525.89        15.70114
526.32        15.68783
526.76        15.68535
527.20        15.68672
527.64        15.68421
528.08        15.67341
528.52        15.65896
528.96        15.63175
529.40        15.57704
529.83        15.49397
530.27        15.39159
530.71        15.29284
531.15        15.23468
531.59        15.22389
532.03        15.25089
532.46        15.28764
532.90        15.28901
533.34        15.24501
533.78        15.17002
534.22        15.08967
534.66        15.04147
535.09        15.03012
535.53        15.04463
535.97        15.06367
536.41         15.0422
536.85        14.97238
537.28        14.91207
537.72        14.87602
538.16        14.79221
538.60        14.71489
539.04        14.83435
539.47        15.09895
539.91        15.25422
540.35        15.27425
540.79        15.29688
541.22        15.33477
541.66        15.36188
542.10        15.38875
542.54        15.40178
542.97        15.41604
543.41        15.51724
543.85        15.68265
544.29        15.79087
544.72        15.84391
545.16        15.95593
545.60        16.12494
546.04         16.2859
546.47        16.42912
546.91        16.56921
547.35        16.70242
547.79        16.83038
548.22        16.95675
548.66        17.08729
549.10        17.23003
549.53        17.42351
549.97        17.64675
550.41        17.82443
550.84        17.94163
551.28        18.03669
551.72        18.11716
552.15         18.1819
552.59        18.24806
553.03        18.30991
553.46        18.37498
553.90        18.47941
554.34        18.61767
554.77        18.76421
555.21        18.91233
555.65        19.06519
556.08        19.21288
556.52        19.34767
556.96          19.465
557.39        19.57839
557.83         19.6942
558.27        19.77911
558.70        19.83882
559.14        19.93041
559.57        20.03489
560.01        20.07569
560.45        20.06155
560.88         20.0762
561.32        20.13688
561.75        20.18482
562.19        20.24452
562.63        20.33293
563.06        20.44129
563.50        20.62819
563.93        20.83636
564.37        20.83144
564.80        20.66995
565.24        20.71813
565.68        20.94862
566.11        21.05832
566.55         21.0491
566.98        21.07891
567.42        21.16656
567.85        21.33776
568.29         21.4463
568.72        21.58515
569.16        21.72752
569.60        21.91419
570.03        22.13665
570.47        22.33769
570.90         22.4879
571.34        22.69523
571.77        22.94425
572.21        22.84149
572.64        23.03944
573.08        22.89564
573.51        23.30446
573.95        23.32969
574.38        23.26183
574.82        23.24431
