SpectraSmart Spectrum 2.9.0.0
--------- Device Information -----------
Spectrum Name :  反射率_0
Saving Time :  2024/05/03 21:00:30
Spectro-Module Model Name : SE2030-DUVN
Spectro-Module Serial Number : OS361AC55029948
Wavelength Start : 200
Wavelength End : 1025
Wavelength Unit : Wavelength(nm)
Spectrum Unit : Reflectance(%)
-----------Spectrum Setting ------------
Integration Time : 20ms
Average : 10
Boxcar : 0
Background removal :  enabled
linearity correction :  enabled
SC :  disabled
Intensity correction :  disabled
DWT denoise :  enabled
savitzky-golay :  disabled
FFT :  disabled
Running average :  disabled
Kalman :  disabled
High pass :  disabled
---------------BEGIN--------------------
Wavelength(nm)             Reflectance(%)
200.29               0
200.75        76.81291
201.21        117.8062
201.67       -2749.414
202.13       -77.73202
202.58       -42.62405
203.04       -34.06823
203.50       -32.99427
203.96       -36.20198
204.42       -45.42737
204.88       -84.66985
205.34        1295.355
205.80        91.51599
206.26        61.99546
206.72        3646.395
207.18        14.50765
207.64        7.570258
208.10       -15.98365
208.55       -97.29136
209.01       -917.7743
209.47       -1394.489
209.93       -180.8644
210.39       -54.98193
210.85       -18.91847
211.31       -4.343888
211.77        4.630384
212.23        16.61102
212.69        39.10416
213.14         44.0355
213.60        5.614052
214.06       -15.16788
214.52       -23.19465
214.98       -27.29718
215.44       -32.05386
215.90       -46.99119
216.36        130.7002
216.81       -3.768275
217.27       -21.58723
217.73       -55.97268
218.19       -223.4845
218.65       -3855.967
219.11       -170.2731
219.57        6.812344
220.02        36.55902
220.48        44.32483
220.94        46.47421
221.40        48.52929
221.86        50.19292
222.32        52.02313
222.77        54.72934
223.23        60.06926
223.69        67.48917
224.15        69.09779
224.61        61.75851
225.06        52.12895
225.52        47.33237
225.98        50.25084
226.44        60.53969
226.90        78.28722
227.36        101.1857
227.81        116.4214
228.27        115.3931
228.73        104.5251
229.19        91.15415
229.65        81.02909
230.10        74.50426
230.56        70.23053
231.02        67.62132
231.48        66.52361
231.93        66.49377
232.39         67.6289
232.85        69.21722
233.31        70.32439
233.77         70.7295
234.22        70.46703
234.68        70.07389
235.14        70.54594
235.60        72.08977
236.05        74.56234
236.51        76.73267
236.97        76.50209
237.43        73.43923
237.88        68.63366
238.34        63.79732
238.80        60.56034
239.26        59.00951
239.71        60.35865
240.17        62.16638
240.63        64.59911
241.08         64.2084
241.54        60.78571
242.00        56.64479
242.46        53.46119
242.91         50.9674
243.37        47.53454
243.83          41.111
244.28        29.12671
244.74        14.89644
245.20         3.58347
245.66       -1.000272
246.11      -0.2887414
246.57        3.291649
247.03        8.897413
247.48         12.6193
247.94        9.934524
248.40        1.193341
248.85       -12.85364
249.31       -27.47309
249.77       -31.45751
250.22       -23.43418
250.68       -10.45951
251.14        1.741897
251.59        9.914412
252.05        15.29227
252.51        20.23442
252.96        26.40866
253.42         35.5083
253.88        45.49465
254.33        52.63435
254.79        55.69332
255.25         55.1428
255.70        53.01437
256.16        51.07978
256.62        50.14269
257.07        50.74736
257.53        52.70991
257.99        55.07701
258.44         56.8105
258.90        57.24265
259.35        56.15037
259.81        54.61764
260.27        52.92298
260.72        51.37167
261.18        50.36095
261.63        49.52391
262.09        49.02813
262.55        48.72791
263.00        48.47804
263.46        48.32089
263.91        48.14911
264.37        48.07371
264.83        48.01105
265.28        47.92433
265.74        47.70122
266.19        46.95441
266.65        45.81599
267.11        44.36863
267.56        42.98856
268.02        42.29622
268.47        42.31615
268.93        42.88457
269.38        43.55336
269.84        43.55672
270.30        42.74598
270.75        41.37996
271.21        39.97997
271.66        39.18651
272.12         39.1263
272.57        39.52259
273.03         40.0164
273.48        40.05931
273.94        39.52817
274.39        38.64079
274.85        37.62402
275.31        36.68313
275.76         35.8871
276.22        35.20663
276.67        34.65403
277.13        34.39127
277.58        34.32171
278.04        34.42461
278.49        34.44833
278.95        34.06519
279.40        33.21949
279.86        32.15461
280.31          31.052
280.77        30.26526
281.22        29.76813
281.68        29.48935
282.13        29.30955
282.59        29.13668
283.04        28.90244
283.50        28.66036
283.95        28.37388
284.41         28.0227
284.86        27.59191
285.32        27.11741
285.77        26.62012
286.22        26.20386
286.68        25.90242
287.13         25.6647
287.59        25.48821
288.04        25.30749
288.50        25.12545
288.95         24.9368
289.41        24.75002
289.86        24.53292
290.32        24.31085
290.77        24.07256
291.22        23.86365
291.68        23.74006
292.13         23.6982
292.59        23.74273
293.04        23.82659
293.50         23.8932
293.95        23.92158
294.40        23.93369
294.86         23.9884
295.31        24.16584
295.77        24.48177
296.22        24.90619
296.68        25.36158
297.13        25.72069
297.58         25.9412
298.04        26.06811
298.49        26.16124
298.95        26.34733
299.40        26.63707
299.85        26.99561
300.31         27.3844
300.76        27.71675
301.21        27.98398
301.67        28.22501
302.12        28.44265
302.58        28.65788
303.03        28.86565
303.48        29.05465
303.94        29.27496
304.39         29.5581
304.84        29.91564
305.30        30.32642
305.75        30.69739
306.20         30.9121
306.66        30.96297
307.11        30.87915
307.57        30.75296
308.02        30.66389
308.47        30.65722
308.93        30.70816
309.38        30.79176
309.83        30.90373
310.29         31.0289
310.74        31.15924
311.19        31.26193
311.65        31.27773
312.10        31.18987
312.55         31.0185
313.00        30.79924
313.46        30.59505
313.91        30.41687
314.36        30.26118
314.82        30.13196
315.27        30.02087
315.72        29.92916
316.18        29.86194
316.63        29.80495
317.08         29.7362
317.53        29.64884
317.99        29.54025
318.44        29.42732
318.89        29.32808
319.35        29.24581
319.80        29.17266
320.25        29.09415
320.70        28.99248
321.16        28.85527
321.61        28.69116
322.06        28.50207
322.51        28.29469
322.97        28.07541
323.42         27.8579
323.87         27.6383
324.32        27.41359
324.78        27.18299
325.23        26.95276
325.68        26.74905
326.13        26.61715
326.59         26.5525
327.04        26.55899
327.49        26.56713
327.94        26.47101
328.39        26.24581
328.85        25.91137
329.30        25.56171
329.75         25.3338
330.20        25.26924
330.66         25.3232
331.11        25.42856
331.56         25.4374
332.01        25.30811
332.46        25.07853
332.92         24.8111
333.37        24.64397
333.82        24.60337
334.27        24.65264
334.72        24.72552
335.17          24.712
335.63        24.57521
336.08         24.3684
336.53        24.15092
336.98        24.02818
337.43        24.02808
337.88        24.11296
338.34        24.22875
338.79        24.29279
339.24        24.27851
339.69        24.21615
340.14        24.12894
340.59        24.05409
341.05        24.00649
341.50        23.97202
341.95        23.95464
342.40        23.96893
342.85        24.01019
343.30        24.07235
343.75        24.12657
344.20        24.12338
344.66        24.06277
345.11        23.96239
345.56        23.84854
346.01        23.75996
346.46        23.71289
346.91        23.69169
347.36        23.71522
347.81        23.81371
348.26        23.97879
348.72        24.19667
349.17        24.39503
349.62        24.46558
350.07        24.38863
350.52        24.19843
350.97        23.96709
351.42        23.81375
351.87        23.76963
352.32        23.79639
352.77        23.85378
353.22        23.87614
353.67        23.84062
354.13        23.77851
354.58        23.68334
355.03        23.56055
355.48        23.42364
355.93        23.28004
356.38        23.15164
356.83        23.07662
357.28        23.06031
357.73        23.08173
358.18        23.13823
358.63        23.22192
359.08        23.31695
359.53        23.42241
359.98         23.4768
360.43        23.38918
360.88        23.14977
361.33        22.78222
361.78        22.39301
362.23        22.14862
362.68        22.08244
363.13        22.15303
363.58        22.24015
364.03         22.1468
364.48        21.83634
364.93        21.37969
365.38        20.91333
365.83        20.64527
366.28        20.62076
366.73        20.76832
367.18        20.97313
367.63         21.0493
368.08        20.94417
368.53        20.72076
368.98        20.45478
369.43        20.25896
369.88        20.16594
370.33        20.13404
370.78        20.13186
371.23        20.11363
371.68        20.05972
372.13        19.98755
372.58        19.90313
373.03        19.80928
373.48        19.70639
373.93        19.58817
374.38         19.4513
374.83        19.29796
375.28        19.13523
375.72        18.96403
376.17        18.81179
376.62        18.68168
377.07         18.5737
377.52        18.48349
377.97        18.40995
378.42        18.35219
378.87        18.30756
379.32         18.2753
379.77        18.24282
380.22        18.19108
380.67        18.11607
381.11        18.02388
381.56        17.92238
382.01        17.84362
382.46        17.79439
382.91        17.76236
383.36        17.73058
383.81        17.67148
384.26        17.57904
384.71        17.46786
385.15          17.337
385.60        17.20235
386.05        17.06758
386.50        16.92838
386.95        16.81201
387.40        16.75802
387.85        16.76789
388.29        16.82248
388.74        16.88439
389.19        16.85927
389.64        16.73501
390.09        16.53641
390.54        16.33915
390.98        16.25094
391.43        16.29711
391.88        16.46243
392.33        16.65615
392.78        16.66619
393.23        16.51322
393.67        16.40544
394.12        16.37155
394.57        16.27941
395.02        16.13783
395.47        16.02333
395.91        15.93991
396.36        15.84646
396.81         15.7553
397.26        15.68705
397.71        15.63461
398.15        15.60215
398.60        15.60698
399.05        15.54907
399.50        15.45721
399.95        15.55314
400.39        15.76099
400.84        15.63637
401.29         15.2394
401.74        15.04015
402.18        15.07511
402.63        15.10489
403.08         15.1233
403.53        15.09837
403.97        15.23247
404.42        15.32429
404.87        15.40533
405.32        15.41817
405.76        15.35391
406.21        15.23521
406.66         15.0954
407.11        14.99484
407.55        14.95258
408.00        14.94602
408.45        14.96216
408.90          14.971
409.34        14.95902
409.79        14.93794
410.24        14.90452
410.68        14.84892
411.13        14.77407
411.58        14.67913
412.03        14.58048
412.47         14.5156
412.92        14.49004
413.37        14.49408
413.81        14.50696
414.26        14.51399
414.71        14.50155
415.15        14.48114
415.60        14.44003
416.05        14.37597
416.49        14.29612
416.94        14.20775
417.39         14.1302
417.83        14.09046
418.28        14.09192
418.73        14.11997
419.17        14.16547
419.62         14.2044
420.07        14.22595
420.51        14.23143
420.96        14.20828
421.41        14.12852
421.85        13.99028
422.30        13.81651
422.74         13.6404
423.19         13.5506
423.64        13.54741
424.08        13.59194
424.53        13.64105
424.98        13.67701
425.42        13.69135
425.87         13.6485
426.31        13.57898
426.76        13.61428
427.21        13.72403
427.65         13.7059
428.10        13.59315
428.54        13.58021
428.99        13.68074
429.44        13.86658
429.88        14.03804
430.33        13.96246
430.77        13.69917
431.22        13.56827
431.66        13.61046
432.11        13.71564
432.56        13.83398
433.00        13.96053
433.45         13.9604
433.89         13.7912
434.34        13.09306
434.78        13.06474
435.23        13.57496
435.67        13.75201
436.12         13.5839
436.57        13.55975
437.01        13.69114
437.46        13.73052
437.90        13.66776
438.35        13.57425
438.79        13.47096
439.24        13.37932
439.68         13.3167
440.13        13.31099
440.57        13.32741
441.02        13.29373
441.46         13.1996
441.91         13.0678
442.35        12.93367
442.80        12.93637
443.24        13.03985
443.69          13.079
444.13        13.04144
444.58        13.04533
445.02        13.08642
445.47        13.08763
445.91        13.05657
446.36        13.05409
446.80        13.08064
447.24        13.11944
447.69        13.15893
448.13        13.18082
448.58         13.1824
449.02         13.1705
449.47        13.15351
449.91        13.13524
450.36        13.12217
450.80        13.10884
451.25         13.1015
451.69        13.10541
452.13        13.11975
452.58        13.14172
453.02        13.15789
453.47        13.15304
453.91        13.12429
454.36        13.07893
454.80        13.02223
455.24        12.98177
455.69        12.97046
456.13        12.93587
456.58        12.88643
457.02        12.98606
457.46        13.02319
457.91        13.03739
458.35        12.97418
458.79        12.98003
459.24        13.03783
459.68        12.99461
460.13         12.8875
460.57        12.83794
461.01        12.86287
461.46        12.89952
461.90          12.924
462.34        12.91282
462.79        12.85613
463.23         12.7618
463.68        12.67283
464.12        12.64587
464.56        12.68982
465.01        12.81971
465.45        12.96247
465.89        12.97501
466.34         12.8827
466.78        12.83685
467.22        12.86838
467.67        12.91285
468.11        12.96829
468.55        13.02872
468.99        13.08031
469.44        13.12057
469.88        13.14439
470.32        13.13144
470.77         13.0961
471.21        13.08304
471.65        13.09813
472.10        13.12703
472.54         13.1539
472.98        13.16217
473.42        13.14852
473.87        13.12762
474.31        13.09867
474.75        13.07164
475.20        13.05618
475.64        13.04178
476.08        13.03481
476.52        13.06425
476.97        13.13321
477.41        13.19726
477.85        13.22582
478.29        13.42214
478.74        13.33221
479.18        13.41821
479.62        13.53109
480.06        13.58103
480.50        13.56026
480.95        13.53132
481.39        13.51304
481.83         13.5165
482.27        13.55815
482.72        13.65209
483.16        13.76612
483.60        13.86001
484.04        13.93596
484.48        13.91869
484.93        13.89863
485.37        14.14937
485.81        14.61955
486.25        14.68636
486.69        14.68192
487.14        14.47501
487.58        14.82975
488.02        14.66783
488.46        14.94865
488.90        14.83945
489.34        14.48227
489.79        14.51582
490.23        14.86759
490.67        15.24531
491.11        15.51569
491.55        15.50147
491.99          15.279
492.43        15.25814
492.88        15.47006
493.32        15.64479
493.76        15.73989
494.20        15.83837
494.64        15.93683
495.08        16.01442
495.52        16.08457
495.96        16.18183
496.41        16.31074
496.85        16.43153
497.29        16.55249
497.73        16.74589
498.17        16.97747
498.61        17.12308
499.05        17.16842
499.49        17.15803
499.93        17.13533
500.37        17.19045
500.82        17.31692
501.26         17.4012
501.70        17.43823
502.14        17.51295
502.58        17.62508
503.02        17.72559
503.46        17.80902
503.90        17.88844
504.34        17.96025
504.78         18.0179
505.22        18.06175
505.66          18.089
506.10        18.09617
506.54        18.12036
506.98        18.17456
507.42         18.1811
507.86        18.12506
508.30        18.37613
508.74        18.29147
509.18        18.38437
509.62        18.46356
510.06        18.54837
510.50        18.63049
510.94        18.71217
511.38        18.78053
511.82        18.79668
512.26        18.75955
512.70        18.68573
513.14        18.60229
513.58        18.55234
514.02        18.54732
514.46        18.57187
514.90        18.62092
515.34        18.68304
515.78        18.74958
516.22        18.82781
516.66        18.89003
517.10        18.89229
517.54        18.83176
517.98        18.71908
518.42         18.6109
518.86        18.59955
519.30        18.70113
519.74        18.88686
520.18        19.08624
520.62        19.18258
521.06        19.14619
521.50        19.01228
521.93        18.84152
522.37        18.73376
522.81        18.71384
523.25        18.74889
523.69         18.7993
524.13        18.80286
524.57        18.74482
525.01        18.65426
525.45        18.55313
525.89        18.47254
526.32        18.42312
526.76        18.39252
527.20        18.38411
527.64        18.40652
528.08        18.45546
528.52        18.52923
528.96        18.59721
529.40        18.61045
529.83        18.55697
530.27        18.45145
530.71        18.33445
531.15        18.27285
531.59        18.28116
532.03        18.34424
532.46        18.41447
532.90        18.41456
533.34         18.3329
533.78        18.20044
534.22        18.07424
534.66         18.0373
535.09        18.09975
535.53        18.23049
535.97         18.3795
536.41        18.45279
536.85        18.42472
537.28        18.37583
537.72        18.32322
538.16        18.17941
538.60        18.02005
539.04        18.08215
539.47        18.32104
539.91        18.45838
540.35        18.47057
540.79        18.51817
541.22        18.60111
541.66        18.65999
542.10        18.69781
542.54        18.70334
542.97        18.70138
543.41        18.80649
543.85        18.99335
544.29         19.1098
544.72        19.15208
545.16        19.24969
545.60        19.39933
546.04        19.52705
546.47        19.63111
546.91        19.74473
547.35        19.86681
547.79        19.99417
548.22        20.12217
548.66        20.24301
549.10        20.36237
549.53        20.53118
549.97        20.72861
550.41        20.87365
550.84        20.95416
551.28        21.01428
551.72        21.06635
552.15        21.11425
552.59          21.177
553.03        21.24469
553.46        21.31943
553.90        21.43303
554.34        21.57437
554.77        21.71349
555.21        21.84283
555.65         21.9678
556.08        22.07974
556.52        22.17289
556.96        22.24327
557.39        22.30656
557.83        22.37312
558.27        22.40837
558.70        22.42878
559.14        22.51398
559.57        22.64254
560.01        22.71848
560.45        22.73831
560.88        22.77763
561.32        22.84965
561.75        22.89372
562.19         22.9359
562.63        22.99353
563.06        23.06157
563.50        23.20943
563.93        23.38824
564.37        23.36089
564.80        23.19366
565.24        23.28615
565.68        23.59245
566.11        23.74423
566.55        23.73268
566.98        23.74757
567.42        23.80868
567.85         23.9295
568.29        23.95695
568.72        24.03212
569.16        24.13346
569.60        24.27188
570.03        24.44072
570.47        24.63306
570.90         24.8168
571.34        24.94381
571.77        25.29197
572.21         25.1358
572.64        25.27987
573.08        25.21626
573.51        25.75126
573.95        25.69866
574.38        25.36862
574.82        25.40857
