SpectraSmart Spectrum 2.9.0.0
--------- Device Information -----------
Spectrum Name :  反射率_0
Saving Time :  2024/05/03 20:47:30
Spectro-Module Model Name : SE2030-DUVN
Spectro-Module Serial Number : OS361AC55029948
Wavelength Start : 200
Wavelength End : 1025
Wavelength Unit : Wavelength(nm)
Spectrum Unit : Reflectance(%)
-----------Spectrum Setting ------------
Integration Time : 20ms
Average : 10
Boxcar : 0
Background removal :  enabled
linearity correction :  enabled
SC :  disabled
Intensity correction :  disabled
DWT denoise :  enabled
savitzky-golay :  disabled
FFT :  disabled
Running average :  disabled
Kalman :  disabled
High pass :  disabled
---------------BEGIN--------------------
Wavelength(nm)             Reflectance(%)
200.29               0
200.75        74.15189
201.21        137.3383
201.67       -4117.449
202.13       -135.6338
202.58       -71.69675
203.04        -48.0133
203.50       -38.33065
203.96        -41.4619
204.42       -62.50419
204.88       -152.7846
205.34        3120.458
205.80        295.1461
206.26        291.8034
206.72        51096.05
207.18       -118.6849
207.64       -58.24848
208.10       -64.18467
208.55       -138.6977
209.01       -911.0228
209.47       -1143.124
209.93       -120.6422
210.39       -24.06816
210.85        2.401789
211.31        14.61202
211.77        25.16672
212.23        43.58041
212.69        85.11117
213.14        109.0922
213.60        50.55785
214.06        13.50105
214.52       -1.534073
214.98       -8.269298
215.44       -13.63143
215.90       -25.72199
216.36        110.8339
216.81        10.08969
217.27        1.153095
217.73        -12.6323
218.19       -81.74885
218.65       -1910.329
219.11       -138.9528
219.57       -30.42851
220.02        -17.8542
220.48       -72.19201
220.94        158.4476
221.40        71.05959
221.86        57.56644
222.32        53.48581
222.77        52.40894
223.23        53.41882
223.69        55.59097
224.15         55.1446
224.61        51.29219
225.06        46.98748
225.52        45.76497
225.98        49.18599
226.44        57.26163
226.90        70.23978
227.36        86.00404
227.81        94.70589
228.27        90.71538
228.73        79.67012
229.19        67.82198
229.65          59.805
230.10         55.4673
230.56        53.37528
231.02        52.64697
231.48        52.72331
231.93        53.26233
232.39        54.51581
232.85        56.04371
233.31        57.27119
233.77        58.06624
234.22        58.35674
234.68        58.61382
235.14        59.71229
235.60        61.81688
236.05        64.85722
236.51        67.58498
236.97        67.75146
237.43        64.88566
237.88        60.11755
238.34        55.37074
238.80         52.6032
239.26        52.16149
239.71        55.87636
240.17        61.83921
240.63        69.95751
241.08        74.28419
241.54        72.50044
242.00        68.18353
242.46        66.87512
242.91        70.07526
243.37        77.13438
243.83        88.87374
244.28        97.62099
244.74        88.15772
245.20         65.5887
245.66        41.43405
246.11        21.52983
246.57        6.393776
247.03        -4.75451
247.48       -11.77969
247.94       -15.63898
248.40       -16.93011
248.85       -16.54818
249.31       -13.91429
249.77       -9.205144
250.22       -4.009887
250.68       0.4900545
251.14        4.407454
251.59        8.874535
252.05        15.29154
252.51        25.33621
252.96        40.17227
253.42        55.76746
253.88         64.9514
254.33        66.94486
254.79         64.9232
255.25        62.35473
255.70        60.46468
256.16        59.34899
256.62        59.29379
257.07        60.66605
257.53        63.32689
257.99        66.38747
258.44        68.58965
258.90        69.05841
259.35        67.59464
259.81         65.5167
260.27        63.31733
260.72        61.53757
261.18        60.57714
261.63        59.86369
262.09        59.47739
262.55         59.0876
263.00          58.558
263.46        58.07747
263.91         57.5723
264.37        57.26014
264.83        57.07452
265.28        56.90319
265.74        56.71717
266.19        56.20156
266.65        55.46457
267.11        54.52311
267.56        53.53794
268.02        52.85054
268.47        52.44072
268.93        52.23411
269.38        52.02259
269.84        51.46558
270.30        50.54299
270.75        49.40735
271.21        48.33761
271.66        47.60077
272.12        47.25367
272.57        47.11883
273.03        47.07959
273.48        46.97571
273.94        46.74816
274.39        46.44207
274.85        45.98005
275.31        45.12973
275.76        43.91351
276.22        42.51779
276.67        41.22101
277.13        40.54667
277.58        40.44509
278.04        40.77295
278.49        41.12456
278.95        40.93676
279.40        40.07284
279.86        38.86786
280.31        37.57435
280.77        36.65772
281.22        36.09467
281.68        35.78125
282.13        35.54068
282.59        35.22197
283.04        34.75379
283.50        34.24266
283.95        33.71286
284.41        33.23639
284.86        32.81111
285.32        32.44656
285.77        32.11695
286.22        31.86382
286.68        31.69688
287.13        31.56526
287.59        31.48164
288.04        31.39281
288.50        31.30781
288.95        31.20831
289.41        31.08376
289.86        30.86753
290.32        30.59315
290.77        30.26878
291.22        29.98749
291.68        29.86788
292.13        29.91641
292.59         30.1236
293.04        30.41573
293.50         30.6871
293.95        30.89855
294.40         31.0884
294.86        31.32402
295.31        31.69814
295.77        32.23286
296.22         32.8787
296.68        33.57233
297.13        34.20885
297.58        34.73696
298.04        35.20599
298.49        35.60817
298.95        35.98304
299.40         36.3399
299.85        36.68582
300.31        37.09951
300.76        37.67109
301.21        38.41291
301.67         39.2842
302.12        40.15319
302.58        40.84207
303.03        41.28341
303.48        41.54159
303.94        41.72955
304.39        41.95141
304.84        42.26864
305.30        42.64165
305.75        43.01657
306.20        43.35112
306.66        43.64087
307.11        43.88063
307.57        44.09289
308.02        44.22156
308.47        44.29481
308.93        44.33335
309.38        44.35674
309.83        44.44968
310.29         44.6243
310.74        44.83799
311.19        45.05282
311.65        45.20193
312.10        45.24886
312.55        45.21168
313.00        45.09518
313.46        44.91238
313.91        44.66718
314.36        44.38687
314.82         44.1048
315.27        43.85801
315.72        43.67184
316.18        43.53975
316.63        43.47436
317.08        43.49632
317.53        43.59364
317.99        43.74472
318.44        43.88972
318.89        43.90924
319.35        43.77209
319.80         43.5041
320.25        43.17242
320.70        42.89827
321.16        42.70427
321.61        42.56393
322.06        42.41963
322.51        42.17862
322.97        41.82052
323.42        41.40226
323.87         40.9659
324.32        40.57812
324.78        40.25935
325.23        39.99903
325.68        39.79571
326.13        39.65481
326.59        39.55249
327.04        39.50628
327.49        39.46234
327.94        39.34428
328.39        39.13208
328.85        38.83043
329.30        38.50261
329.75        38.21865
330.20        38.00734
330.66        37.83846
331.11        37.71635
331.56        37.59447
332.01        37.46062
332.46         37.3339
332.92        37.19681
333.37        37.06404
333.82        36.92239
334.27        36.76315
334.72        36.61515
335.17        36.53376
335.63        36.51369
336.08        36.55671
336.53        36.58993
336.98        36.50895
337.43         36.2935
337.88        35.98288
338.34        35.64303
338.79        35.38706
339.24        35.25064
339.69        35.20778
340.14        35.23123
340.59        35.27436
341.05          35.313
341.50        35.35848
341.95        35.40548
342.40        35.44938
342.85        35.48596
343.30        35.50851
343.75        35.50053
344.20        35.44508
344.66        35.35232
345.11        35.22385
345.56        35.10123
346.01        35.04239
346.46        35.05912
346.91        35.13496
347.36        35.22883
347.81        35.27468
348.26         35.2552
348.72        35.19002
349.17        35.10391
349.62        35.04731
350.07        35.03184
350.52        35.03856
350.97        35.04068
351.42         34.9998
351.87         34.9038
352.32        34.76231
352.77        34.59793
353.22         34.4458
353.67        34.31818
354.13        34.21964
354.58        34.11085
355.03        33.95658
355.48        33.75665
355.93        33.53135
356.38         33.3306
356.83        33.22953
357.28        33.23923
357.73        33.32902
358.18        33.44026
358.63        33.48033
359.08        33.41798
359.53        33.27097
359.98        33.07177
360.43         32.8768
360.88        32.70015
361.33        32.52312
361.78        32.32397
362.23        32.06671
362.68        31.75332
363.13        31.41673
363.58        31.08399
364.03        30.79561
364.48        30.56777
364.93        30.38249
365.38         30.2565
365.83        30.21146
366.28        30.23618
366.73        30.32155
367.18        30.38511
367.63        30.29708
368.08        30.03461
368.53        29.63153
368.98        29.20532
369.43        28.93839
369.88        28.86862
370.33        28.94888
370.78        29.05854
371.23         28.9915
371.68        28.69847
372.13         28.2484
372.58        27.77479
373.03        27.47705
373.48        27.39887
373.93        27.47556
374.38        27.59147
374.83        27.55903
375.28        27.32871
375.72        26.95574
376.17        26.56499
376.62        26.28975
377.07        26.16075
377.52        26.13239
377.97        26.13274
378.42        26.05176
378.87        25.86733
379.32        25.62362
379.77        25.39154
380.22        25.26606
380.67         25.2595
381.11        25.33869
381.56        25.42606
382.01        25.41363
382.46        25.27451
382.91        25.05108
383.36        24.80284
383.81        24.61376
384.26        24.50461
384.71        24.44711
385.15        24.41081
385.60        24.36712
386.05        24.29523
386.50        24.20526
386.95        24.10486
387.40        24.00075
387.85        23.90092
388.29        23.80062
388.74         23.7106
389.19         23.5932
389.64        23.44621
390.09        23.27169
390.54        23.12917
390.98        23.09082
391.43        23.16869
391.88        23.36989
392.33        23.58217
392.78        23.52724
393.23        23.25153
393.67        23.04845
394.12        22.97024
394.57        22.85652
395.02        22.72161
395.47        22.66059
395.91        22.67321
396.36        22.68637
396.81        22.70016
397.26        22.74375
397.71        22.76987
398.15        22.73428
398.60        22.66671
399.05        22.44666
399.50        22.18319
399.95        22.28917
400.39        22.67187
400.84        22.66478
401.29        22.29067
401.74        22.12927
402.18        22.20471
402.63        22.19483
403.08        22.11965
403.53        21.98198
403.97        22.09861
404.42        22.16288
404.87        22.23275
405.32        22.24654
405.76        22.18951
406.21        22.08902
406.66        21.96577
407.11        21.86013
407.55        21.78913
408.00        21.73345
408.45        21.69001
408.90        21.64767
409.34        21.60099
409.79        21.55736
410.24        21.51764
410.68        21.47574
411.13        21.43499
411.58         21.3975
412.03        21.36156
412.47        21.33163
412.92        21.30284
413.37        21.27233
413.81        21.25167
414.26        21.28399
414.71        21.36116
415.15        21.48442
415.60        21.58892
416.05        21.58665
416.49        21.46139
416.94        21.24963
417.39        21.03394
417.83        20.93295
418.28        20.97145
418.73        21.10788
419.17        21.28512
419.62        21.39137
420.07        21.39169
420.51        21.31273
420.96        21.19036
421.41        21.05986
421.85        20.93112
422.30        20.81096
422.74        20.69261
423.19        20.62699
423.64        20.60246
424.08        20.58574
424.53        20.57247
424.98        20.63836
425.42        20.79439
425.87        20.94345
426.31        21.06579
426.76         21.2622
427.21        21.45701
427.65        21.36492
428.10        21.06624
428.54        20.90995
428.99        20.94384
429.44         21.1147
429.88        21.28885
430.33        21.14058
430.77        20.76059
431.22        20.63082
431.66        20.78489
432.11        21.01069
432.56        21.21649
433.00        21.38623
433.45        21.34191
433.89        21.10525
434.34        20.11889
434.78        20.14518
435.23        20.95691
435.67        21.21086
436.12        20.88469
436.57        20.72121
437.01        20.79029
437.46        20.82102
437.90        20.82125
438.35        20.86743
438.79        20.92088
439.24        20.90877
439.68         20.8336
440.13        20.76974
440.57         20.7237
441.02         20.6753
441.46        20.62571
441.91        20.59002
442.35         20.5593
442.80        20.62279
443.24        20.73472
443.69        20.77025
444.13        20.72484
444.58        20.71234
445.02        20.73263
445.47        20.71422
445.91        20.66451
446.36        20.64555
446.80        20.65562
447.24         20.6843
447.69        20.71239
448.13        20.70697
448.58        20.66683
449.02        20.60222
449.47        20.54059
449.91        20.51028
450.36        20.52278
450.80        20.55897
451.25         20.6076
451.69        20.64205
452.13        20.65429
452.58        20.65266
453.02        20.63068
453.47        20.58883
453.91        20.52977
454.36        20.45446
454.80        20.37328
455.24        20.33517
455.69        20.35643
456.13        20.35473
456.58        20.31828
457.02        20.46733
457.46        20.46585
457.91        20.39292
458.35        20.20211
458.79        20.18102
459.24         20.3124
459.68        20.33748
460.13        20.28019
460.57        20.28509
461.01        20.36327
461.46        20.42797
461.90         20.4509
462.34        20.41473
462.79        20.31079
463.23        20.14721
463.68        19.98356
464.12        19.90014
464.56        19.91258
465.01        20.05258
465.45        20.22418
465.89        20.22918
466.34        20.10673
466.78        20.08234
467.22        20.17959
467.67        20.25325
468.11        20.28997
468.55        20.29657
468.99         20.2751
469.44        20.25782
469.88        20.24996
470.32        20.21136
470.77        20.16351
471.21        20.17336
471.65        20.24408
472.10        20.35267
472.54        20.46021
472.98        20.51778
473.42        20.51353
473.87        20.47206
474.31        20.40393
474.75        20.34474
475.20        20.31415
475.64         20.2952
476.08         20.2921
476.52         20.3166
476.97        20.36765
477.41        20.43047
477.85        20.48841
478.29        20.66529
478.74        20.64389
479.18        20.82226
479.62        21.06015
480.06         21.1708
480.50        21.13583
480.95        21.06367
481.39        20.99516
481.83        20.96859
482.27        21.01352
482.72        21.14976
483.16        21.32663
483.60        21.45227
484.04        21.51538
484.48        21.48333
484.93        21.47417
485.37        21.70972
485.81        22.23212
486.25        22.52334
486.69        22.93093
487.14        22.86707
487.58        22.43006
488.02        22.50312
488.46        22.90184
488.90         22.4236
489.34        22.38924
489.79        22.46553
490.23        23.00239
490.67        23.30334
491.11        23.34245
491.55        23.39732
491.99        23.48871
492.43        23.58039
492.88        23.67984
493.32        23.79033
493.76        23.90312
494.20        24.02326
494.64        24.15238
495.08        24.30426
495.52        24.48027
495.96         24.6376
496.41        24.78858
496.85        25.03072
497.29        25.32869
497.73        25.52108
498.17         25.6034
498.61        25.71606
499.05        25.85505
499.49        25.87886
499.93        25.82986
500.37        25.90594
500.82        26.09251
501.26        26.21489
501.70        26.26151
502.14        26.33404
502.58        26.44287
503.02        26.55659
503.46        26.67446
503.90        26.80096
504.34        26.92508
504.78        27.03088
505.22         27.1139
505.66        27.16995
506.10         27.1939
506.54        27.24132
506.98        27.33027
507.42        27.34265
507.86        27.24997
508.30        27.59902
508.74         27.4262
509.18         27.5105
509.62        27.57795
510.06        27.67676
510.50        27.79992
510.94        27.94366
511.38        28.08467
511.82        28.15821
512.26        28.15401
512.70        28.09306
513.14        28.00392
513.58        27.93212
514.02        27.89501
514.46        27.88279
514.90        27.89644
515.34        27.93472
515.78        27.99396
516.22        28.07731
516.66         28.1676
517.10         28.2363
517.54        28.27472
517.98        28.28182
518.42        28.27731
518.86        28.29658
519.30        28.34512
519.74         28.4135
520.18        28.46727
520.62        28.45099
521.06         28.3566
521.50        28.20495
521.93        28.04477
522.37        27.95694
522.81        27.95585
523.25        28.01558
523.69         28.0905
524.13        28.10676
524.57        28.04778
525.01        27.94331
525.45        27.82203
525.89        27.72904
526.32        27.67845
526.76        27.65552
527.20        27.66135
527.64        27.70163
528.08        27.76886
528.52        27.86019
528.96        27.94065
529.40         27.9544
529.83        27.88641
530.27         27.7558
530.71        27.60295
531.15        27.49656
531.59        27.45357
532.03         27.4599
532.46        27.47604
532.90        27.43781
533.34        27.33776
533.78        27.20656
534.22        27.08904
534.66        27.04856
535.09        27.08909
535.53        27.18308
535.97        27.29657
536.41        27.35679
536.85        27.34016
537.28        27.34206
537.72        27.34783
538.16        27.16349
538.60        26.88768
539.04        26.90035
539.47        27.15929
539.91        27.28955
540.35        27.27058
540.79        27.32702
541.22        27.45672
541.66        27.56977
542.10        27.66444
542.54         27.7226
542.97        27.76769
543.41        27.94788
543.85        28.22033
544.29        28.36279
544.72        28.37868
545.16         28.4751
545.60        28.65381
546.04        28.80474
546.47         28.9262
546.91        29.06847
547.35        29.23096
547.79        29.41063
548.22        29.60324
548.66        29.79945
549.10        30.00588
549.53        30.29451
549.97        30.62561
550.41        30.86563
550.84        30.99201
551.28         31.0719
551.72        31.13056
552.15        31.18629
552.59        31.26976
553.03        31.36236
553.46        31.46337
553.90        31.61255
554.34        31.79346
554.77        31.96833
555.21        32.12806
555.65        32.28289
556.08        32.42239
556.52        32.53562
556.96        32.62609
557.39           32.73
557.83        32.86256
558.27        32.97076
558.70        33.05436
559.14        33.19111
559.57        33.34113
560.01        33.37635
560.45        33.32819
560.88        33.34739
561.32        33.45871
561.75        33.60148
562.19        33.77353
562.63        33.83226
563.06        33.80849
563.50        34.06075
563.93        34.48362
564.37         34.4641
564.80        34.09381
565.24        34.11017
565.68        34.47614
566.11         34.6496
566.55        34.63076
566.98        34.68143
567.42        34.81458
567.85        35.05887
568.29        35.16267
568.72        35.26439
569.16        35.35428
569.60        35.53237
570.03        35.73746
570.47        36.03214
570.90        36.37069
571.34        36.35859
571.77        36.93408
572.21        36.70644
572.64        37.02362
573.08        36.72387
573.51        37.34987
573.95        37.45536
574.38         37.4874
574.82        37.31258
