SpectraSmart Spectrum 2.9.0.0
--------- Device Information -----------
Spectrum Name :  反射率_0
Saving Time :  2024/05/03 21:03:08
Spectro-Module Model Name : SE2030-DUVN
Spectro-Module Serial Number : OS361AC55029948
Wavelength Start : 200
Wavelength End : 1025
Wavelength Unit : Wavelength(nm)
Spectrum Unit : Reflectance(%)
-----------Spectrum Setting ------------
Integration Time : 20ms
Average : 10
Boxcar : 0
Background removal :  enabled
linearity correction :  enabled
SC :  disabled
Intensity correction :  disabled
DWT denoise :  enabled
savitzky-golay :  disabled
FFT :  disabled
Running average :  disabled
Kalman :  disabled
High pass :  disabled
---------------BEGIN--------------------
Wavelength(nm)             Reflectance(%)
200.29               0
200.75        60.05837
201.21        95.90195
201.67       -2119.232
202.13       -45.30754
202.58       -12.40032
203.04      0.01204328
203.50         7.01955
203.96        12.38604
204.42        19.29913
204.88        38.73458
205.34       -597.2715
205.80       -46.09535
206.26       -42.73404
206.72       -8081.206
207.18        26.33156
207.64        22.09386
208.10        35.38031
208.55        92.24644
209.01        651.1818
209.47        925.7817
209.93        127.6675
210.39        46.40571
210.85        24.49685
211.31        18.57626
211.77        19.52887
212.23        27.29943
212.69        51.63312
213.14        77.04937
213.60        50.25417
214.06        30.38248
214.52        21.91752
214.98        18.31236
215.44         16.5647
215.90        14.33662
216.36        4.698821
216.81       -4.785903
217.27        -30.4705
217.73       -105.6018
218.19       -535.6038
218.65       -12449.24
219.11        -956.084
219.57       -256.9446
220.02       -144.4344
220.48       -241.5847
220.94        289.3419
221.40        95.94119
221.86        68.30422
222.32        61.97195
222.77        63.45964
223.23        72.02959
223.69        88.23718
224.15           100.7
224.61         98.4901
225.06        88.95909
225.52        83.07155
225.98        86.08745
226.44        97.92278
226.90        117.8182
227.36        142.5343
227.81        157.1368
228.27        152.4301
228.73        136.8304
229.19        119.4605
229.65        107.0227
230.10        99.44342
230.56        94.93536
231.02        92.19447
231.48        90.41528
231.93        89.13412
232.39        88.79984
232.85         88.9278
233.31        88.99349
233.77        88.84182
234.22        88.31575
234.68        87.86987
235.14         88.3663
235.60        89.97626
236.05        92.74787
236.51        95.27704
236.97        95.16711
237.43        91.95757
237.88         86.7143
238.34        81.72321
238.80        79.60159
239.26        81.05336
239.71        87.79198
240.17        99.78688
240.63        112.7524
241.08        116.6694
241.54        107.9323
242.00         95.3592
242.46        89.23763
242.91        91.19223
243.37        100.6763
243.83        118.9425
244.28        132.9523
244.74        118.2994
245.20        82.34784
245.66        47.70756
246.11        28.50573
246.57        22.55714
247.03        24.23916
247.48        27.53077
247.94        26.23785
248.40        19.92792
248.85        9.795045
249.31       0.1194755
249.77      -0.1105411
250.22        9.277366
250.68        22.03821
251.14        33.45861
251.59        41.39639
252.05         47.3107
252.51        53.32943
252.96        61.34661
253.42         72.3928
253.88        83.21404
254.33        89.64323
254.79         90.9183
255.25        87.83737
255.70        83.20417
256.16        79.65608
256.62        77.42971
257.07        76.67188
257.53        77.35314
257.99         78.3326
258.44        79.10389
258.90        79.78832
259.35        79.75182
259.81        79.70858
260.27         79.0265
260.72        77.10223
261.18        74.77146
261.63        72.13784
262.09        70.15704
262.55        69.28326
263.00        69.27391
263.46        69.86338
263.91        70.48736
264.37        70.75496
264.83        70.46925
265.28        69.80704
265.74        68.91587
266.19        67.62077
266.65        66.15205
267.11        64.46884
267.56        62.87695
268.02        61.95365
268.47        61.68364
268.93         61.9521
269.38        62.32646
269.84        62.06151
270.30        61.03605
270.75        59.50412
271.21        57.99511
271.66        57.13429
272.12        57.03421
272.57        57.36562
273.03         57.7808
273.48        57.74925
273.94         57.1397
274.39        56.15552
274.85        54.91612
275.31        53.43813
275.76        51.81583
276.22        50.16986
276.67        48.72059
277.13        47.94249
277.58         47.7432
278.04        48.00599
278.49        48.29314
278.95        48.00024
279.40        46.98014
279.86        45.58474
280.31        44.09303
280.77        43.03373
281.22         42.3751
281.68        42.01081
282.13        41.71563
282.59        41.28504
283.04        40.63638
283.50        39.89931
283.95        39.15356
284.41        38.56573
284.86        38.13164
285.32         37.8267
285.77        37.53678
286.22         37.1796
286.68        36.75373
287.13         36.2616
287.59         35.7991
288.04        35.41792
288.50        35.15527
288.95        34.94979
289.41        34.76744
289.86        34.50246
290.32         34.1702
290.77        33.78648
291.22        33.42504
291.68        33.16971
292.13        33.02201
292.59        32.98199
293.04        33.00595
293.50        33.04827
293.95        33.08767
294.40        33.14376
294.86        33.26623
295.31        33.51474
295.77        33.89359
296.22        34.35744
296.68        34.83265
297.13        35.20163
297.58        35.42326
298.04        35.56305
298.49        35.63069
298.95        35.69054
299.40        35.75451
299.85        35.81449
300.31        35.96445
300.76        36.31516
301.21        36.87726
301.67        37.61274
302.12        38.32738
302.58        38.74657
303.03        38.80359
303.48        38.59992
303.94        38.36446
304.39        38.37235
304.84        38.69894
305.30        39.24076
305.75        39.81158
306.20        40.16017
306.66         40.2405
307.11        40.12545
307.57        39.94928
308.02        39.82853
308.47         39.8265
308.93        39.89961
309.38         40.0035
309.83        40.12244
310.29        40.23896
310.74        40.35028
311.19        40.44008
311.65        40.47163
312.10        40.42591
312.55        40.30879
313.00        40.13306
313.46         39.9286
313.91        39.69764
314.36        39.45642
314.82        39.22054
315.27        38.99791
315.72        38.80254
316.18        38.63593
316.63        38.50637
317.08          38.428
317.53        38.39643
317.99        38.39884
318.44        38.40685
318.89        38.35614
319.35        38.22944
319.80        38.03812
320.25         37.8208
320.70        37.64882
321.16        37.52898
321.61        37.44563
322.06        37.34748
322.51        37.15377
322.97        36.84925
323.42        36.48096
323.87        36.09669
324.32         35.7753
324.78        35.53878
325.23        35.37291
325.68        35.26413
326.13         35.1945
326.59        35.13586
327.04        35.11074
327.49        35.07819
327.94        34.98271
328.39        34.81124
328.85        34.56349
329.30        34.29502
329.75        34.06888
330.20        33.90911
330.66        33.78897
331.11        33.70599
331.56        33.60743
332.01         33.4792
332.46        33.33923
332.92        33.18093
333.37        33.03358
333.82         32.8909
334.27        32.74507
334.72        32.61113
335.17        32.51852
335.63        32.46069
336.08        32.44781
336.53        32.43795
336.98        32.37516
337.43        32.24674
337.88        32.07127
338.34        31.88121
338.79        31.73381
339.24        31.64949
339.69        31.62252
340.14        31.63462
340.59        31.65627
341.05        31.67348
341.50        31.68538
341.95        31.71481
342.40        31.80362
342.85         31.9488
343.30        32.13122
343.75        32.26929
344.20        32.23753
344.66        32.03021
345.11        31.69168
345.56        31.34334
346.01         31.1685
346.46        31.20867
346.91        31.40364
347.36        31.66692
347.81        31.85869
348.26        31.93438
348.72        31.93917
349.17        31.89123
349.62        31.82956
350.07        31.77106
350.52        31.69287
350.97        31.61286
351.42        31.56759
351.87        31.55831
352.32        31.57899
352.77        31.58896
353.22        31.51755
353.67        31.35696
354.13        31.14599
354.58        30.91957
355.03        30.75542
355.48        30.67682
355.93        30.66386
356.38        30.69822
356.83        30.75229
357.28        30.80592
357.73        30.85215
358.18        30.88296
358.63        30.88621
359.08        30.85426
359.53        30.78905
359.98        30.66376
360.43        30.44339
360.88        30.13291
361.33        29.74819
361.78        29.36757
362.23        29.10715
362.68        28.98876
363.13        28.98675
363.58         29.0046
364.03        28.88358
364.48        28.59495
364.93        28.19249
365.38        27.79018
365.83        27.56372
366.28        27.54777
366.73        27.67792
367.18         27.8486
367.63        27.89171
368.08         27.7569
368.53        27.49549
368.98        27.17682
369.43        26.90357
369.88        26.70697
370.33        26.55809
370.78        26.42191
371.23        26.24623
371.68        26.02316
372.13        25.78068
372.58        25.56482
373.03        25.43554
373.48        25.39914
373.93        25.42859
374.38        25.46681
374.83        25.42467
375.28        25.27707
375.72        25.04002
376.17        24.78272
376.62        24.56575
377.07        24.40544
377.52        24.28407
377.97        24.17296
378.42        24.03029
378.87        23.85108
379.32         23.6548
379.77        23.47723
380.22        23.36221
380.67        23.31337
381.11        23.32098
381.56        23.33069
382.01         23.2716
382.46         23.1306
382.91        22.93292
383.36          22.738
383.81        22.63206
384.26        22.62815
384.71        22.69543
385.15        22.76962
385.60        22.76706
386.05        22.65767
386.50        22.46749
386.95        22.24779
387.40        22.07508
387.85        21.97004
388.29        21.90444
388.74        21.85415
389.19        21.73235
389.64        21.52945
390.09        21.27467
390.54        21.04324
390.98         20.9331
391.43        20.96847
391.88        21.14068
392.33        21.35609
392.78        21.37609
393.23        21.23098
393.67        21.17535
394.12        21.21959
394.57        21.15656
395.02        20.98765
395.47        20.81808
395.91        20.68298
396.36        20.57907
396.81        20.53063
397.26        20.55087
397.71        20.57863
398.15        20.54367
398.60        20.46412
399.05        20.24107
399.50        19.98419
399.95        20.07853
400.39        20.44308
400.84        20.47294
401.29        20.16924
401.74        20.02758
402.18        20.06516
402.63        19.99899
403.08        19.87961
403.53        19.76145
403.97        19.93758
404.42        20.11265
404.87        20.29794
405.32        20.37455
405.76         20.3126
406.21        20.15467
406.66        19.95078
407.11        19.78576
407.55        19.68921
408.00        19.63287
408.45        19.59315
408.90         19.5241
409.34        19.41649
409.79         19.2962
410.24        19.19364
410.68        19.14294
411.13        19.15162
411.58        19.20247
412.03        19.26808
412.47        19.30647
412.92        19.29372
413.37        19.24035
413.81        19.16306
414.26        19.10839
414.71          19.075
415.15        19.06097
415.60        19.02662
416.05        18.93159
416.49        18.77507
416.94        18.58286
417.39        18.40747
417.83        18.31824
418.28        18.32681
418.73        18.40697
419.17        18.51687
419.62        18.57333
420.07        18.55466
420.51        18.48179
420.96        18.38531
421.41        18.29787
421.85        18.22273
422.30        18.15537
422.74        18.09195
423.19        18.08219
423.64        18.11116
424.08        18.14858
424.53        18.15596
424.98        18.14212
425.42        18.11202
425.87        18.00821
426.31        17.88025
426.76        17.91306
427.21        18.06717
427.65        18.07608
428.10        17.96203
428.54        17.94439
428.99        18.03379
429.44        18.20118
429.88        18.33855
430.33        18.17802
430.77        17.80808
431.22        17.63848
431.66        17.69907
432.11        17.82418
432.56        17.94391
433.00        18.01663
433.45        17.90891
433.89        17.74301
434.34        17.01013
434.78        17.01976
435.23        17.60094
435.67        17.78885
436.12        17.57052
436.57        17.47151
437.01        17.52924
437.46        17.52014
437.90        17.45113
438.35        17.39692
438.79        17.34959
439.24          17.282
439.68        17.19882
440.13        17.14673
440.57        17.13675
441.02        17.12259
441.46        17.08889
441.91        17.15461
442.35        17.25264
442.80        17.15013
443.24        16.91689
443.69        16.98462
444.13        17.29427
444.58        17.39718
445.02        17.26858
445.47        17.15731
445.91        17.10943
446.36        17.10039
446.80         17.1372
447.24        17.22688
447.69        17.32823
448.13        17.37409
448.58        17.35166
449.02        17.27559
449.47        17.18397
449.91         17.1278
450.36        17.12452
450.80        17.15175
451.25        17.18891
451.69        17.19785
452.13        17.17017
452.58        17.11995
453.02        17.06223
453.47        17.02726
453.91        17.02185
454.36        17.03646
454.80        17.05103
455.24        17.06095
455.69        17.06953
456.13        17.01989
456.58        16.93203
457.02        17.03522
457.46        17.05795
457.91        17.04868
458.35        16.93941
458.79        16.92785
459.24        16.99188
459.68        16.93248
460.13        16.79501
460.57        16.73279
461.01        16.76524
461.46        16.81269
461.90        16.84079
462.34        16.81644
462.79        16.72639
463.23        16.58048
463.68         16.4405
464.12        16.39159
464.56        16.44597
465.01        16.61894
465.45        16.80603
465.89        16.80784
466.34         16.6552
466.78        16.54981
467.22        16.53806
467.67        16.54986
468.11        16.59066
468.55         16.6512
468.99        16.71362
469.44        16.77304
469.88        16.82114
470.32        16.83129
470.77        16.81951
471.21        16.83916
471.65        16.89388
472.10        16.96297
472.54        17.02077
472.98        17.03942
473.42        17.01437
473.87        16.96708
474.31        16.90435
474.75        16.85098
475.20        16.82233
475.64        16.80394
476.08        16.80195
476.52        16.83817
476.97        16.91327
477.41        16.99591
477.85        17.05542
478.29        17.25573
478.74        17.19039
479.18        17.30863
479.62        17.47106
480.06        17.55572
480.50        17.55063
480.95           17.54
481.39        17.53958
481.83        17.53974
482.27        17.55586
482.72        17.66185
483.16        17.74383
483.60        17.82369
484.04        17.87135
484.48        17.84506
484.93        17.83757
485.37        18.03179
485.81        18.44312
486.25        18.65807
486.69        18.85704
487.14        18.74457
487.58        18.60214
488.02        18.37511
488.46        18.72383
488.90        18.72694
489.34        18.42001
489.79        18.48229
490.23         18.8431
490.67        19.14066
491.11        19.29979
491.55         19.3148
491.99        19.24336
492.43        19.29385
492.88        19.48761
493.32        19.68859
493.76        19.85166
494.20        19.98933
494.64        20.09444
495.08        20.16271
495.52        20.22119
495.96        20.32367
496.41        20.47758
496.85         20.6423
497.29        20.79861
497.73        20.96257
498.17        21.09926
498.61        21.13522
499.05        21.09226
499.49        21.02772
499.93        21.00567
500.37        21.15302
500.82        21.42006
501.26        21.57957
501.70        21.60539
502.14        21.62909
502.58        21.68003
503.02        21.74575
503.46        21.83365
503.90        21.94145
504.34        22.05101
504.78         22.1338
505.22        22.18206
505.66        22.20124
506.10        22.18776
506.54        22.18619
506.98         22.2138
507.42        22.17399
507.86        22.05709
508.30        22.32701
508.74        22.20687
509.18          22.321
509.62        22.42662
510.06        22.52852
510.50        22.61348
510.94         22.6885
511.38         22.7562
511.82        22.79964
512.26        22.82033
512.70        22.82423
513.14         22.8151
513.58        22.80145
514.02        22.78662
514.46         22.7649
514.90        22.75191
515.34        22.77073
515.78        22.82319
516.22         22.9079
516.66        22.98144
517.10        22.97429
517.54        22.87817
517.98        22.71396
518.42        22.55424
518.86        22.51472
519.30        22.61751
519.74        22.82661
520.18        23.05734
520.62        23.17064
521.06        23.13077
521.50        22.97917
521.93        22.78985
522.37        22.68478
522.81        22.69233
523.25        22.77125
523.69        22.86678
524.13        22.89346
524.57        22.83192
525.01        22.72041
525.45        22.59393
525.89        22.50405
526.32        22.46651
526.76        22.46144
527.20         22.4854
527.64        22.53733
528.08        22.60776
528.52        22.69688
528.96        22.77069
529.40        22.77456
529.83        22.69658
530.27        22.55536
530.71        22.39676
531.15        22.29733
531.59        22.27424
532.03        22.30908
532.46        22.35666
532.90        22.34262
533.34        22.25538
533.78        22.12817
534.22        22.00516
534.66        21.94918
535.09        21.96759
535.53        22.03391
535.97        22.12267
536.41        22.17836
536.85        22.18145
537.28        22.20934
537.72        22.24221
538.16        22.10821
538.60        21.88451
539.04        21.88303
539.47        22.07962
539.91          22.186
540.35        22.18815
540.79        22.26267
541.22        22.39548
541.66        22.49355
542.10        22.55158
542.54        22.56303
542.97        22.55926
543.41        22.67892
543.85        22.89259
544.29        23.01517
544.72        23.04315
545.16        23.13521
545.60        23.28882
546.04        23.41578
546.47        23.51762
546.91        23.63897
547.35        23.77967
547.79        23.93568
548.22        24.09514
548.66         24.2388
549.10        24.36986
549.53        24.54959
549.97        24.76446
550.41        24.92174
550.84        25.00519
551.28         25.0936
551.72        25.19143
552.15        25.13195
552.59        25.18435
553.03        25.15486
553.46        25.14313
553.90        25.21539
554.34        25.36886
554.77        25.55391
555.21         25.7499
555.65        25.94975
556.08        26.13266
556.52        26.29258
556.96          26.415
557.39        26.50443
557.83        26.57161
558.27        26.57855
558.70        26.55648
559.14         26.6211
559.57        26.75378
560.01        26.83682
560.45        26.86138
560.88        26.90811
561.32        26.98934
561.75        27.03624
562.19        27.07884
562.63         27.1362
563.06        27.20228
563.50        27.35868
563.93        27.54871
564.37        27.49599
564.80        27.28063
565.24         27.3737
565.68        27.72158
566.11        27.89212
566.55        27.87497
566.98         27.8926
567.42        27.96874
567.85        28.11826
568.29        28.15987
568.72        28.26414
569.16        28.40645
569.60        28.56338
570.03        28.71752
570.47        28.93031
570.90        29.18739
571.34        29.14238
571.77        29.65845
572.21        29.47015
572.64        29.64396
573.08        29.59693
573.51        29.88533
573.95        29.93499
574.38         29.9258
574.82        29.86776
