SpectraSmart Spectrum 2.9.0.0
--------- Device Information -----------
Spectrum Name :  反射率_0
Saving Time :  2024/05/03 20:33:33
Spectro-Module Model Name : SE2030-DUVN
Spectro-Module Serial Number : OS361AC55029948
Wavelength Start : 200
Wavelength End : 1025
Wavelength Unit : Wavelength(nm)
Spectrum Unit : Reflectance(%)
-----------Spectrum Setting ------------
Integration Time : 20ms
Average : 10
Boxcar : 0
Background removal :  enabled
linearity correction :  enabled
SC :  disabled
Intensity correction :  disabled
DWT denoise :  enabled
savitzky-golay :  disabled
FFT :  disabled
Running average :  disabled
Kalman :  disabled
High pass :  disabled
---------------BEGIN--------------------
Wavelength(nm)             Reflectance(%)
200.29               0
200.75        9.383251
201.21        37.44496
201.67       -1654.534
202.13       -56.80053
202.58       -21.49122
203.04       -1.714578
203.50        10.68769
203.96        13.80735
204.42        5.534153
204.88       -37.61269
205.34        1529.727
205.80        166.3496
206.26        139.4319
206.72        9770.953
207.18        47.41652
207.64        55.19731
208.10        47.75583
208.55        16.20875
209.01       -337.1639
209.47       -605.4022
209.93       -45.74586
210.39        13.85034
210.85        31.36711
211.31         39.0585
211.77         44.4752
212.23        52.74547
212.69        67.85361
213.14        63.93338
213.60        29.85063
214.06        14.96829
214.52        9.183922
214.98        3.683762
215.44       -6.984035
215.90       -44.90653
216.36        438.3545
216.81        80.88695
217.27        48.46146
217.73        9.772613
218.19       -170.9085
218.65        -5080.64
219.11       -338.6967
219.57       -47.30286
220.02        5.489745
220.48       -2.408091
220.94         94.1359
221.40        61.32237
221.86        56.74967
222.32        54.60344
222.77         52.4633
223.23        50.19568
223.69        46.22158
224.15        39.69683
224.61        34.44284
225.06        31.68082
225.52        31.95261
225.98        35.22971
226.44        41.50596
226.90        51.53052
227.36        63.81776
227.81         70.8603
228.27        68.28737
228.73        60.07912
229.19        51.19468
229.65        45.47288
230.10        42.69028
230.56         41.6007
231.02        41.26608
231.48        40.98306
231.93        40.54764
232.39        40.28866
232.85        40.14527
233.31        40.03175
233.77        39.95282
234.22        39.86081
234.68        39.84002
235.14        40.06085
235.60        40.55948
236.05        41.32882
236.51        42.23431
236.97        43.09036
237.43        43.71959
237.88         44.2931
238.34         44.7805
238.80        45.06816
239.26        45.19347
239.71        47.07421
240.17        48.09377
240.63        51.65618
241.08         56.4179
241.54        60.25061
242.00        62.59745
242.46        65.22205
242.91        69.61829
243.37        76.17132
243.83        85.09944
244.28        88.49191
244.74        74.37033
245.20        49.38879
245.66        27.23386
246.11        14.50804
246.57        9.797495
247.03        10.42135
247.48        13.69376
247.94        16.76092
248.40        19.32877
248.85        21.81114
249.31        24.83988
249.77        28.02619
250.22        30.59895
250.68        32.38177
251.14        33.82866
251.59        36.03836
252.05        39.73724
252.51        45.40659
252.96        53.72024
253.42        62.37918
253.88        66.76822
254.33         66.2049
254.79        61.94265
255.25         55.5127
255.70        49.33038
256.16        44.80823
256.62        42.09362
257.07        41.23642
257.53         41.8864
257.99        43.15989
258.44        44.32839
258.90        45.02972
259.35        44.90453
259.81        44.56118
260.27        43.97665
260.72        43.16587
261.18        42.45851
261.63         41.6648
262.09        41.01469
262.55        40.47331
263.00        39.94089
263.46         39.4402
263.91        38.87472
264.37        38.33524
264.83        37.78978
265.28        37.24941
265.74        36.67188
266.19        35.80222
266.65        34.74117
267.11        33.52962
267.56        32.42318
268.02        31.85156
268.47         31.8125
268.93        32.17542
269.38        32.60049
269.84        32.50947
270.30        31.79577
270.75         30.6624
271.21        29.48948
271.66        28.73618
272.12        28.49956
272.57        28.58018
273.03        28.76782
273.48        28.75527
273.94        28.46071
274.39        28.01207
274.85         27.4759
275.31        26.85599
275.76        26.18454
276.22        25.49026
276.67        24.88806
277.13        24.63488
277.58        24.67704
278.04        24.95374
278.49        25.18117
278.95        24.96159
279.40        24.22955
279.86        23.23872
280.31        22.22738
280.77        21.58651
281.22        21.30727
281.68        21.27536
282.13        21.33724
282.59        21.32699
283.04        21.17005
283.50        20.94276
283.95        20.64507
284.41        20.28773
284.86        19.88317
285.32        19.45748
285.77        19.04583
286.22         18.7601
286.68        18.62663
287.13        18.59187
287.59        18.63567
288.04        18.68595
288.50        18.72981
288.95        18.76105
289.41         18.7657
289.86         18.6845
290.32        18.53734
290.77          18.334
291.22        18.14117
291.68        18.04971
292.13        18.07247
292.59        18.20361
293.04        18.40528
293.50        18.62623
293.95        18.84035
294.40          19.068
294.86        19.32695
295.31        19.64701
295.77        20.03044
296.22        20.44427
296.68        20.86608
297.13        21.26168
297.58        21.60288
298.04        21.90984
298.49        22.13923
298.95         22.2561
299.40        22.26325
299.85        22.19017
300.31        22.15136
300.76        22.29829
301.21        22.66235
301.67        23.19131
302.12        23.74291
302.58        24.10788
303.03        24.22421
303.48         24.1565
303.94        24.03626
304.39         24.0176
304.84        24.14828
305.30        24.37367
305.75        24.58551
306.20        24.64495
306.66        24.53793
307.11        24.31263
307.57        24.07778
308.02        23.93994
308.47        23.93801
308.93        24.03206
309.38        24.15306
309.83        24.22548
310.29        24.22214
310.74        24.15516
311.19        24.05138
311.65        23.95097
312.10        23.85864
312.55        23.76181
313.00        23.63176
313.46        23.42957
313.91        23.14844
314.36        22.82189
314.82        22.50407
315.27        22.26705
315.72        22.13301
316.18        22.07578
316.63        22.05846
317.08        22.02351
317.53        21.94732
317.99        21.84001
318.44         21.7053
318.89        21.54341
319.35        21.35927
319.80        21.15012
320.25        20.93031
320.70        20.72769
321.16          20.544
321.61        20.37852
322.06        20.21418
322.51        20.02221
322.97        19.79745
323.42        19.55861
323.87        19.31839
324.32        19.09859
324.78        18.90512
325.23        18.73446
325.68        18.58766
326.13        18.46914
326.59        18.36875
327.04          18.297
327.49        18.22779
327.94        18.12526
328.39         17.9786
328.85        17.78678
329.30         17.5831
329.75        17.41361
330.20        17.29291
330.66        17.20665
331.11        17.12692
331.56        16.98099
332.01        16.75395
332.46        16.46416
332.92         16.1659
333.37        15.97178
333.82         15.9012
334.27        15.92885
334.72        15.98129
335.17        15.93223
335.63        15.74304
336.08        15.45983
336.53        15.15888
336.98        14.97397
337.43        14.93875
337.88        15.00885
338.34        15.11045
338.79         15.1245
339.24           15.02
339.69         14.8417
340.14        14.63759
340.59        14.48455
341.05        14.40742
341.50        14.37523
341.95        14.37674
342.40        14.40112
342.85        14.43269
343.30        14.47298
343.75          14.487
344.20        14.41651
344.66        14.26285
345.11         14.0477
345.56        13.82056
346.01        13.65662
346.46         13.5809
346.91        13.57348
347.36        13.62615
347.81        13.72379
348.26        13.84903
348.72        13.99846
349.17        14.13618
349.62        14.21127
350.07        14.20957
350.52        14.13796
350.97        14.01916
351.42        13.89666
351.87        13.78523
352.32        13.67655
352.77        13.56733
353.22        13.44917
353.67        13.32517
354.13        13.21492
354.58        13.11317
355.03        13.02156
355.48        12.94119
355.93        12.86663
356.38        12.81358
356.83        12.80778
357.28        12.84735
357.73        12.92193
358.18        12.98667
358.63        12.97014
359.08        12.86051
359.53         12.6805
359.98        12.48665
360.43        12.37082
360.88        12.34952
361.33         12.3864
361.78         12.4355
362.23        12.42337
362.68        12.33196
363.13        12.19544
363.58        12.02292
364.03        11.82939
364.48        11.63211
364.93        11.42479
365.38        11.25675
365.83        11.20405
366.28        11.27196
366.73        11.43921
367.18        11.61682
367.63        11.65559
368.08        11.52347
368.53        11.26549
368.98        10.97773
369.43         10.8115
369.88        10.80186
370.33        10.90031
370.78        11.03584
371.23        11.08757
371.68        11.01746
372.13        10.86742
372.58        10.68088
373.03        10.52081
373.48        10.40653
373.93        10.31355
374.38        10.23091
374.83        10.14641
375.28        10.05565
375.72        9.965529
376.17        9.882277
376.62        9.789144
377.07        9.683432
377.52        9.564811
377.97        9.449701
378.42        9.367984
378.87        9.328195
379.32        9.326036
379.77        9.334764
380.22        9.314491
380.67        9.256843
381.11        9.169144
381.56        9.085148
382.01        9.069876
382.46        9.132913
382.91         9.25018
383.36        9.357771
383.81        9.362149
384.26        9.249084
384.71         9.05082
385.15        8.830559
385.60        8.706444
386.05        8.699559
386.50         8.76925
386.95        8.863416
387.40        8.901392
387.85        8.865248
388.29        8.786839
388.74        8.693189
389.19        8.598404
389.64        8.512522
390.09        8.422743
390.54        8.359702
390.98        8.367635
391.43        8.447618
391.88        8.597294
392.33        8.748919
392.78        8.758679
393.23        8.639205
393.67        8.512189
394.12          8.4249
394.57        8.358316
395.02        8.326871
395.47        8.352098
395.91        8.414855
396.36         8.45232
396.81         8.45617
397.26        8.451046
397.71        8.432665
398.15        8.403346
398.60        8.379901
399.05        8.307682
399.50        8.225563
399.95        8.286494
400.39        8.455083
400.84        8.484057
401.29        8.369991
401.74        8.310282
402.18        8.310435
402.63         8.25771
403.08        8.177969
403.53        8.104284
403.97        8.161122
404.42        8.222679
404.87        8.295934
405.32        8.333774
405.76        8.322681
406.21        8.280774
406.66        8.218255
407.11         8.15309
407.55         8.09537
408.00        8.037281
408.45        7.986277
408.90        7.955186
409.34        7.945802
409.79         7.95401
410.24        7.970482
410.68        7.977742
411.13        7.971653
411.58        7.956762
412.03        7.930321
412.47        7.891549
412.92        7.843024
413.37        7.787986
413.81        7.741067
414.26        7.730399
414.71        7.755042
415.15        7.809817
415.60        7.870143
416.05        7.896162
416.49        7.876763
416.94        7.826835
417.39        7.765818
417.83        7.722651
418.28        7.704757
418.73        7.698442
419.17        7.704453
419.62        7.722366
420.07        7.747604
420.51        7.780163
420.96        7.799543
421.41        7.768863
421.85        7.684142
422.30        7.565912
422.74         7.44635
423.19        7.397282
423.64        7.422062
424.08         7.49162
424.53        7.568502
424.98         7.62197
425.42        7.639008
425.87        7.606828
426.31        7.546316
426.76        7.540149
427.21        7.575194
427.65        7.538615
428.10        7.455204
428.54        7.442666
428.99        7.507893
429.44        7.631392
429.88        7.750441
430.33        7.723607
430.77        7.579991
431.22        7.499093
431.66        7.503942
432.11        7.533368
432.56        7.561411
433.00        7.585581
433.45        7.539561
433.89         7.41321
434.34        7.021717
434.78        7.007358
435.23        7.295959
435.67        7.412254
436.12        7.344907
436.57        7.354969
437.01        7.452251
437.46        7.506818
437.90        7.510148
438.35          7.4967
438.79        7.462692
439.24        7.397136
439.68        7.309331
440.13        7.224595
440.57        7.149144
441.02        7.086022
441.46        7.040573
441.91        7.012048
442.35        6.998055
442.80        7.045268
443.24        7.127478
443.69        7.162938
444.13        7.151803
444.58        7.170483
445.02        7.218929
445.47        7.246762
445.91         7.25388
446.36        7.268348
446.80        7.290339
447.24         7.31591
447.69        7.337749
448.13        7.343485
448.58        7.332376
449.02        7.306499
449.47        7.282894
449.91        7.284347
450.36        7.314221
450.80        7.363187
451.25        7.406952
451.69        7.404906
452.13        7.350893
452.58        7.260898
453.02         7.16172
453.47        7.099329
453.91        7.085503
454.36         7.10496
454.80        7.139039
455.24        7.166116
455.69        7.179957
456.13        7.162354
456.58        7.120205
457.02        7.145914
457.46        7.128357
457.91        7.090042
458.35        7.012001
458.79        6.989999
459.24         7.01828
459.68        7.008384
460.13        6.976432
460.57        6.978368
461.01        7.020098
461.46        7.068234
461.90        7.102927
462.34        7.098076
462.79        7.046893
463.23         6.95569
463.68        6.863179
464.12        6.825246
464.56        6.852648
465.01        6.945224
465.45        7.047163
465.89        7.055528
466.34         6.98002
466.78        6.910536
467.22        6.876497
467.67        6.866979
468.11        6.888588
468.55        6.932252
468.99        6.978983
469.44         7.00927
469.88        7.015441
470.32         6.99232
470.77        6.957564
471.21        6.949917
471.65        6.975304
472.10        7.018721
472.54         7.06057
472.98         7.07651
473.42        7.061468
473.87         7.03026
474.31        6.988808
474.75        6.952118
475.20        6.929653
475.64        6.912475
476.08        6.905881
476.52        6.928036
476.97        6.979519
477.41        7.035471
477.85        7.073085
478.29        7.189709
478.74        7.139595
479.18        7.174182
479.62        7.218269
480.06        7.232804
480.50        7.216311
480.95        7.198082
481.39        7.188894
481.83        7.198649
482.27        7.235645
482.72        7.306204
483.16        7.386062
483.60        7.440231
484.04        7.454422
484.48         7.41894
484.93         7.43795
485.37        7.540209
485.81        7.623789
486.25        7.967412
486.69         7.93528
487.14          7.4018
487.58         8.05564
488.02        7.918329
488.46        8.004392
488.90        7.886475
489.34         7.70824
489.79        7.764801
490.23        7.980725
490.67        8.194964
491.11        8.318834
491.55        8.250918
491.99        8.058906
492.43        8.022071
492.88        8.166683
493.32        8.318778
493.76        8.435654
494.20        8.541254
494.64        8.624616
495.08        8.679025
495.52        8.719687
495.96        8.779443
496.41        8.864543
496.85        8.948089
497.29        9.031446
497.73        9.150441
498.17        9.285702
498.61        9.372738
499.05         9.40494
499.49        9.407239
499.93        9.404124
500.37        9.444666
500.82        9.526943
501.26        9.590529
501.70        9.632586
502.14        9.698809
502.58        9.785648
503.02        9.860636
503.46        9.919246
503.90        9.969604
504.34        10.01314
504.78        10.05191
505.22        10.08785
505.66        10.11853
506.10        10.13764
506.54        10.15949
506.98         10.1901
507.42        10.18721
507.86        10.15012
508.30         10.2976
508.74        10.27153
509.18        10.35684
509.62        10.43389
510.06        10.49395
510.50        10.52958
510.94        10.54882
511.38        10.56186
511.82        10.57492
512.26        10.59293
512.70         10.6144
513.14        10.63626
513.58        10.65508
514.02        10.66895
514.46        10.67624
514.90        10.68343
515.34        10.69979
515.78        10.72605
516.22         10.7621
516.66        10.78754
517.10        10.77053
517.54        10.70877
517.98        10.61287
518.42        10.52237
518.86        10.49953
519.30        10.55571
519.74        10.67172
520.18         10.7994
520.62        10.85951
521.06        10.83165
521.50        10.73859
521.93        10.62333
522.37         10.5551
522.81        10.55042
523.25        10.58534
523.69        10.62754
524.13        10.62655
524.57        10.57132
525.01        10.48491
525.45        10.38877
525.89        10.31437
526.32        10.27242
526.76        10.25141
527.20         10.2502
527.64        10.26874
528.08        10.30133
528.52        10.34713
528.96        10.38634
529.40        10.38728
529.83        10.34235
530.27        10.26058
530.71        10.16568
531.15         10.0972
531.59        10.06486
532.03        10.06031
532.46         10.0617
532.90        10.03304
533.34        9.969814
533.78        9.888556
534.22        9.814465
534.66        9.782909
535.09        9.797791
535.53        9.844693
535.97        9.903754
536.41         9.93603
536.85         9.93023
537.28        9.925282
537.72        9.922861
538.16        9.862412
538.60        9.781052
539.04        9.810621
539.47        9.933839
539.91        10.00939
540.35        10.02761
540.79        10.07357
541.22        10.14026
541.66        10.18443
542.10        10.20586
542.54        10.20189
542.97        10.19709
543.41        10.27174
543.85        10.41396
544.29        10.53341
544.72        10.61195
545.16        10.69818
545.60        10.78613
546.04        10.84383
546.47        10.88366
546.91        10.94425
547.35        11.03213
547.79        11.13946
548.22        11.25885
548.66        11.37954
549.10        11.50126
549.53        11.65349
549.97        11.82345
550.41        11.96133
550.84        12.05741
551.28         12.1368
551.72        12.20273
552.15        12.25296
552.59        12.30041
553.03        12.34223
553.46        12.39026
553.90        12.47976
554.34        12.60648
554.77        12.74677
555.21        12.88573
555.65        13.00837
556.08        13.10444
556.52        13.17795
556.96        13.22872
557.39        13.27011
557.83        13.31188
558.27        13.33049
558.70         13.3466
559.14        13.42482
559.57         13.5528
560.01        13.66604
560.45        13.73987
560.88        13.78635
561.32         13.8086
561.75        13.78117
562.19        13.74313
562.63        13.74084
563.06        13.78119
563.50        13.89643
563.93        14.04255
564.37        14.05133
564.80        13.95715
565.24        14.01072
565.68         14.1969
566.11        14.31227
566.55        14.35457
566.98        14.42845
567.42        14.53787
567.85         14.6781
568.29        14.74824
568.72        14.84361
569.16        14.96109
569.60        15.06565
570.03        15.14685
570.47        15.31045
570.90        15.56526
571.34        15.41388
571.77        15.84901
572.21        15.76379
572.64         15.9073
573.08        15.88504
573.51        16.25167
573.95        16.28722
574.38         16.1769
574.82         16.0791
