SpectraSmart Spectrum 2.9.0.0
--------- Device Information -----------
Spectrum Name :  反射率_0
Saving Time :  2024/05/03 20:51:34
Spectro-Module Model Name : SE2030-DUVN
Spectro-Module Serial Number : OS361AC55029948
Wavelength Start : 200
Wavelength End : 1025
Wavelength Unit : Wavelength(nm)
Spectrum Unit : Reflectance(%)
-----------Spectrum Setting ------------
Integration Time : 20ms
Average : 10
Boxcar : 0
Background removal :  enabled
linearity correction :  enabled
SC :  disabled
Intensity correction :  disabled
DWT denoise :  enabled
savitzky-golay :  disabled
FFT :  disabled
Running average :  disabled
Kalman :  disabled
High pass :  disabled
---------------BEGIN--------------------
Wavelength(nm)             Reflectance(%)
200.29               0
200.75        32.55973
201.21        64.04326
201.67       -1918.258
202.13       -49.18409
202.58       -9.328323
203.04        12.17528
203.50        26.09321
203.96        32.33283
204.42        31.25457
204.88         13.9272
205.34        660.7011
205.80        88.41518
206.26        54.14479
206.72       -9445.212
207.18        110.4269
207.64        90.68111
208.10        74.84852
208.55        36.23037
209.01       -397.3785
209.47       -872.5346
209.93       -103.9119
210.39       -15.78471
210.85        10.04269
211.31        18.25365
211.77        19.17267
212.23        15.20134
212.69       0.2058483
213.14       -16.58061
213.60       -4.019248
214.06        8.134197
214.52        14.32946
214.98        18.71092
215.44        25.23229
215.90         47.4104
216.36       -269.5639
216.81       -54.30682
217.27       -64.23463
217.73       -129.3083
218.19       -517.3494
218.65       -10760.18
219.11       -776.8394
219.57       -200.0715
220.02       -110.8819
220.48       -195.5536
220.94        253.8233
221.40        89.59953
221.86        66.35075
222.32        61.77611
222.77        64.47857
223.23        74.11903
223.69        90.77705
224.15        101.1953
224.61        94.97805
225.06        82.01852
225.52          73.771
225.98        74.81224
226.44        84.55173
226.90        102.1413
227.36         125.026
227.81        140.2681
228.27        138.9796
228.73        127.6891
229.19        113.9331
229.65        103.4832
230.10        96.57578
230.56        92.07819
231.02         88.8922
231.48        86.36058
231.93        84.20658
232.39        82.85809
232.85        82.27783
233.31        82.60793
233.77        83.72268
234.22         85.2406
234.68        86.95153
235.14        88.55473
235.60        89.83462
236.05        91.02893
236.51        91.21433
236.97        89.21498
237.43        85.16362
237.88        79.90401
238.34        75.21066
238.80        72.89542
239.26        73.33866
239.71        78.35014
240.17         87.4617
240.63        98.78736
241.08        104.9121
241.54         101.909
242.00         95.4239
242.46        94.09103
242.91        100.3858
243.37        114.7708
243.83        139.5795
244.28        160.5444
244.74        147.5812
245.20        108.0819
245.66         67.0592
246.11         40.9198
246.57        28.63449
247.03        24.58261
247.48        24.93307
247.94        25.71104
248.40        25.96224
248.85        26.13833
249.31        27.03855
249.77        29.01258
250.22        31.59347
250.68        34.24326
251.14        36.60719
251.59        39.19561
252.05        42.87015
252.51        48.34863
252.96        57.78593
253.42        72.13081
253.88        86.58385
254.33          96.385
254.79         98.1098
255.25        91.49948
255.70        81.98172
256.16        73.85587
256.62         68.7081
257.07        67.45231
257.53        69.30618
257.99        72.40345
258.44        75.12854
258.90        76.33503
259.35        75.57512
259.81        74.22731
260.27        72.56895
260.72        70.89494
261.18        69.75606
261.63        68.68988
262.09        67.99393
262.55        67.50779
263.00        67.05984
263.46        66.73036
263.91        66.38593
264.37        66.20499
264.83        66.08135
265.28        65.95039
265.74        65.68124
266.19        64.76672
266.65        63.37691
267.11        61.61225
267.56        59.91018
268.02        59.01673
268.47        58.94868
268.93        59.50188
269.38        60.16843
269.84        60.08574
270.30        59.09071
270.75        57.49482
271.21        55.84528
271.66        54.78423
272.12        54.45202
272.57        54.53041
273.03        54.74574
273.48        54.68979
273.94        54.24671
274.39        53.57162
274.85        52.69766
275.31         51.5177
275.76        50.09018
276.22        48.56399
276.67        47.17859
277.13        46.43565
277.58        46.25601
278.04        46.50229
278.49        46.76061
278.95        46.46574
279.40        45.47628
279.86        44.13979
280.31        42.68632
280.77        41.56939
281.22        40.76254
281.68        40.18726
282.13        39.69992
282.59        39.21413
283.04         38.6658
283.50        38.13827
283.95        37.62527
284.41        37.16364
284.86        36.72969
285.32        36.34421
285.77        35.96478
286.22        35.61522
286.68        35.31095
287.13        35.00564
287.59        34.74262
288.04        34.50706
288.50        34.31409
288.95        34.12433
289.41        33.91208
289.86        33.58375
290.32        33.16735
290.77        32.68375
291.22         32.2183
291.68        31.87089
292.13        31.65028
292.59        31.55594
293.04        31.55353
293.50        31.60872
293.95        31.69602
294.40        31.82522
294.86        32.02087
295.31        32.30642
295.77        32.68087
296.22        33.11402
296.68        33.54461
297.13        33.87996
297.58        34.08684
298.04        34.21263
298.49        34.28527
298.95         34.3944
299.40        34.54873
299.85        34.73676
300.31        34.98686
300.76        35.30781
301.21        35.70159
301.67        36.16576
302.12        36.61404
302.58        36.93849
303.03        37.10037
303.48        37.13909
303.94        37.16823
304.39         37.2981
304.84        37.56976
305.30        37.93404
305.75        38.28526
306.20        38.49762
306.66        38.55466
307.11        38.48352
307.57        38.36484
308.02        38.24044
308.47        38.15853
308.93        38.11366
309.38        38.09027
309.83        38.10958
310.29        38.16723
310.74        38.24164
311.19        38.32286
311.65        38.38815
312.10        38.41036
312.55        38.38689
313.00         38.2888
313.46        38.08017
313.91        37.75602
314.36        37.35777
314.82        36.94629
315.27        36.60349
315.72        36.36626
316.18        36.21549
316.63        36.14321
317.08        36.13551
317.53        36.17246
317.99        36.24633
318.44         36.3173
318.89        36.30184
319.35         36.1789
319.80        35.96397
320.25        35.70244
320.70        35.48055
321.16        35.31351
321.61         35.1819
322.06        35.05047
322.51        34.86358
322.97         34.6056
323.42        34.31248
323.87        33.99811
324.32         33.6847
324.78        33.38227
325.23         33.0954
325.68         32.8381
326.13        32.63966
326.59        32.49281
327.04        32.40887
327.49        32.35128
327.94        32.26795
328.39        32.14202
328.85        31.97537
329.30        31.79971
329.75        31.63901
330.20        31.50365
330.66        31.36978
331.11        31.25296
331.56        31.13869
332.01        31.02365
332.46        30.91736
332.92        30.79383
333.37         30.6461
333.82        30.46178
334.27         30.2465
334.72        30.04437
335.17        29.93222
335.63        29.91522
336.08         29.9851
336.53        30.07034
336.98        30.06445
337.43        29.94009
337.88        29.73285
338.34        29.48896
338.79        29.28976
339.24        29.16394
339.69        29.09078
340.14        29.06326
340.59        29.07072
341.05        29.09948
341.50        29.15151
341.95        29.20639
342.40        29.23354
342.85        29.22226
343.30        29.17576
343.75        29.09281
344.20        28.97877
344.66        28.85133
345.11        28.71008
345.56        28.58371
346.01        28.51035
346.46         28.4988
346.91        28.53917
347.36        28.61193
347.81        28.68331
348.26        28.74098
348.72        28.79338
349.17        28.83283
349.62        28.85907
350.07        28.86956
350.52        28.85307
350.97        28.82013
351.42        28.79199
351.87         28.7693
352.32        28.74852
352.77         28.6977
353.22        28.56579
353.67        28.35177
354.13        28.08718
354.58        27.81625
355.03        27.62769
355.48        27.54168
355.93        27.53583
356.38        27.56338
356.83        27.54975
357.28        27.47167
357.73        27.34375
358.18        27.19911
358.63        27.09326
359.08        27.03748
359.53        27.01103
359.98        26.96702
360.43        26.83702
360.88         26.6081
361.33        26.30296
361.78        25.98312
362.23        25.73879
362.68        25.59233
363.13        25.52632
363.58        25.47361
364.03        25.32711
364.48        25.06911
364.93         24.7344
365.38        24.41988
365.83        24.27193
366.28        24.31477
366.73        24.49865
367.18        24.70325
367.63        24.73554
368.08        24.54817
368.53        24.19873
368.98        23.80684
369.43        23.55569
369.88        23.48827
370.33         23.5506
370.78        23.64159
371.23        23.59258
371.68        23.36217
372.13        23.01317
372.58        22.64886
373.03         22.4193
373.48        22.35959
373.93        22.41978
374.38        22.51836
374.83        22.52452
375.28        22.39861
375.72         22.1717
376.17        21.92738
376.62        21.74914
377.07        21.65401
377.52        21.60996
377.97         21.5632
378.42        21.43354
378.87        21.21165
379.32        20.93833
379.77         20.6739
380.22        20.49599
380.67        20.41657
381.11        20.41045
381.56        20.42872
382.01         20.4062
382.46        20.32239
382.91         20.2005
383.36        20.06261
383.81        19.93836
384.26        19.83741
384.71        19.75025
385.15         19.6686
385.60        19.59959
386.05        19.53583
386.50        19.47495
386.95        19.42213
387.40         19.3821
387.85        19.35356
388.29        19.32716
388.74        19.29699
389.19        19.21082
389.64        19.06366
390.09         18.8658
390.54        18.67437
390.98        18.56388
391.43        18.55561
391.88        18.65683
392.33         18.7859
392.78        18.73128
393.23        18.52737
393.67        18.39957
394.12        18.38054
394.57        18.32658
395.02        18.24202
395.47         18.2057
395.91         18.2102
396.36        18.18611
396.81        18.13712
397.26        18.09379
397.71        18.03977
398.15        17.97104
398.60        17.91598
399.05        17.76764
399.50        17.59579
399.95        17.70436
400.39        18.01313
400.84        17.99827
401.29        17.67998
401.74        17.52239
402.18        17.54728
402.63        17.49938
403.08        17.40137
403.53        17.26734
403.97        17.34946
404.42        17.40484
404.87        17.47441
405.32        17.50035
405.76        17.46745
406.21        17.39861
406.66        17.31063
407.11        17.23648
407.55         17.1903
408.00         17.1563
408.45        17.13099
408.90        17.10465
409.34        17.07252
409.79        17.03918
410.24        17.00911
410.68        16.98337
411.13        16.96453
411.58         16.9526
412.03        16.93717
412.47        16.90552
412.92        16.85266
413.37        16.78548
413.81        16.72605
414.26        16.72491
414.71        16.77894
415.15        16.88193
415.60        16.98097
416.05        17.00159
416.49         16.9249
416.94         16.7789
417.39         16.6178
417.83        16.51938
418.28         16.5017
418.73         16.5375
419.17        16.59805
419.62        16.62514
420.07        16.60357
420.51        16.55115
420.96        16.48549
421.41        16.41719
421.85        16.34732
422.30        16.28152
422.74        16.22132
423.19        16.22016
423.64        16.26635
424.08        16.32425
424.53        16.36743
424.98        16.41819
425.42        16.47869
425.87        16.49296
426.31        16.46794
426.76        16.51616
427.21         16.5923
427.65        16.46801
428.10        16.22659
428.54         16.1653
428.99        16.31173
429.44        16.60794
429.88        16.89363
430.33        16.82797
430.77        16.47201
431.22        16.23593
431.66        16.19108
432.11        16.24371
432.56        16.34769
433.00        16.48271
433.45         16.4869
433.89        16.30477
434.34        15.50247
434.78        15.50317
435.23        16.13661
435.67        16.33899
436.12        16.09281
436.57        15.98476
437.01        16.05831
437.46        16.07812
437.90        16.04657
438.35        16.03307
438.79        16.02012
439.24        15.96814
439.68        15.88628
440.13         15.8287
440.57        15.79745
441.02        15.77763
441.46         15.7673
441.91        15.75856
442.35        15.74844
442.80        15.84926
443.24        16.00689
443.69        16.03834
444.13        15.94806
444.58        15.91272
445.02        15.93864
445.47        15.92204
445.91        15.86988
446.36        15.85283
446.80        15.87059
447.24        15.90986
447.69        15.95306
448.13        15.96965
448.58        15.95524
449.02        15.91679
449.47        15.87612
449.91        15.85697
450.36        15.86771
450.80        15.89377
451.25        15.91978
451.69        15.91573
452.13        15.87561
452.58        15.81038
453.02        15.73068
453.47        15.66025
453.91        15.60702
454.36        15.56732
454.80        15.53234
455.24        15.51059
455.69        15.50901
456.13        15.47325
456.58        15.41451
457.02        15.53076
457.46        15.56991
457.91        15.57504
458.35        15.48737
458.79        15.49338
459.24        15.57314
459.68        15.54224
460.13        15.43108
460.57        15.36453
461.01         15.3599
461.46        15.34953
461.90        15.32309
462.34          15.283
462.79        15.22478
463.23        15.14925
463.68        15.08817
464.12        15.07778
464.56        15.11994
465.01        15.24189
465.45        15.37316
465.89        15.36747
466.34        15.25908
466.78        15.21994
467.22        15.27143
467.67        15.31189
468.11        15.33355
468.55        15.33796
468.99        15.33059
469.44        15.34054
469.88        15.36934
470.32        15.38544
470.77        15.38265
471.21        15.37573
471.65        15.36287
472.10        15.33862
472.54         15.3107
472.98         15.3003
473.42        15.31031
473.87        15.34201
474.31        15.36723
474.75        15.35653
475.20        15.31299
475.64        15.24025
476.08        15.16662
476.52        15.15731
476.97        15.22406
477.41        15.30356
477.85        15.35153
478.29        15.58991
478.74         15.4857
479.18        15.58209
479.62        15.70236
480.06        15.73535
480.50        15.67357
480.95         15.5913
481.39        15.52374
481.83        15.50325
482.27        15.55142
482.72          15.681
483.16        15.84071
483.60        15.94673
484.04        15.97567
484.48        15.91244
484.93        15.89174
485.37        16.07224
485.81        16.39152
486.25        16.88062
486.69        16.82114
487.14        16.65586
487.58        16.69969
488.02         16.7709
488.46        16.79815
488.90        16.66572
489.34        16.52553
489.79        16.55907
490.23        16.80255
490.67        17.17109
491.11        17.53015
491.55        17.48801
491.99        17.13401
492.43        17.04554
492.88        17.26552
493.32         17.4516
493.76        17.55513
494.20        17.67373
494.64        17.79931
495.08        17.90991
495.52        18.00989
495.96        18.11694
496.41        18.23368
496.85        18.32404
497.29        18.40925
497.73        18.58863
498.17        18.83002
498.61         18.9893
499.05        19.05056
499.49        19.06216
499.93        19.06732
500.37        19.16515
500.82        19.33511
501.26        19.42801
501.70        19.43618
502.14        19.46449
502.58        19.52901
503.02        19.60191
503.46        19.68599
503.90         19.7879
504.34        19.90232
504.78        20.01821
505.22        20.12936
505.66          20.231
506.10        20.30236
506.54        20.35975
506.98        20.41171
507.42         20.3745
507.86        20.25011
508.30        20.48317
508.74        20.36706
509.18        20.47072
509.62         20.5652
510.06        20.64413
510.50          20.695
510.94        20.73179
511.38        20.76635
511.82        20.79707
512.26        20.82806
512.70        20.85746
513.14         20.8833
513.58        20.90529
514.02        20.92241
514.46        20.93255
514.90         20.9419
515.34        20.95893
515.78        20.98522
516.22        21.02273
516.66        21.05206
517.10        21.04249
517.54        20.99174
517.98        20.90845
518.42        20.83384
518.86         20.8329
519.30         20.9161
519.74        21.06312
520.18        21.21672
520.62         21.2834
521.06        21.24031
521.50        21.11385
521.93        20.96025
522.37        20.87311
522.81        20.87267
523.25        20.92851
523.69        20.99314
524.13        20.99129
524.57        20.90742
525.01         20.7744
525.45        20.62806
525.89        20.52258
526.32        20.47348
526.76        20.46148
527.20        20.47709
527.64        20.50866
528.08         20.5452
528.52        20.58972
528.96         20.6186
529.40        20.59413
529.83        20.50847
530.27        20.37567
530.71           20.23
531.15        20.12891
531.59        20.08651
532.03        20.09135
532.46         20.1112
532.90         20.0928
533.34        20.02742
533.78        19.93677
534.22        19.85409
534.66        19.82712
535.09        19.85869
535.53        19.92834
535.97        20.00742
536.41        20.03672
536.85        20.00011
537.28        19.97132
537.72        19.94966
538.16        19.80878
538.60        19.62256
539.04        19.66068
539.47        19.88444
539.91        20.00636
540.35        20.00572
540.79        20.05022
541.22        20.13606
541.66        20.19447
542.10        20.22675
542.54        20.22303
542.97        20.21058
543.41        20.31276
543.85        20.50271
544.29        20.61683
544.72        20.65181
545.16        20.74828
545.60        20.90381
546.04        21.03944
546.47        21.15533
546.91        21.29031
547.35        21.44268
547.79        21.60635
548.22        21.77345
548.66         21.9317
549.10        22.08562
549.53        22.29099
549.97         22.5229
550.41        22.69017
550.84        22.77896
551.28        22.83739
551.72        22.88477
552.15        22.93427
552.59        23.00913
553.03        23.09846
553.46        23.19658
553.90        23.32551
554.34         23.4712
554.77        23.60336
555.21        23.72831
555.65        23.87489
556.08        24.03655
556.52        24.19913
556.96        24.33437
557.39        24.42337
557.83        24.47164
558.27         24.4534
558.70        24.41462
559.14        24.48652
559.57        24.65633
560.01        24.80544
560.45        24.90286
560.88        24.99196
561.32        25.07728
561.75        25.10171
562.19        25.11482
562.63        25.16832
563.06        25.26324
563.50        25.46609
563.93        25.69768
564.37        25.65726
564.80        25.41501
565.24        25.42812
565.68        25.67949
566.11        25.82309
566.55        25.86032
566.98        25.96838
567.42        26.13934
567.85        26.35962
568.29        26.43689
568.72        26.50292
569.16        26.55246
569.60        26.65962
570.03         26.8287
570.47        27.02292
570.90        27.20642
571.34        27.35174
571.77        27.67626
572.21        27.51921
572.64        27.76705
573.08        27.60443
573.51        28.19574
573.95        28.39512
574.38         28.4774
574.82        28.39058
