SpectraSmart Spectrum 2.9.0.0
--------- Device Information -----------
Spectrum Name :  反射率_0
Saving Time :  2024/05/03 20:41:15
Spectro-Module Model Name : SE2030-DUVN
Spectro-Module Serial Number : OS361AC55029948
Wavelength Start : 200
Wavelength End : 1025
Wavelength Unit : Wavelength(nm)
Spectrum Unit : Reflectance(%)
-----------Spectrum Setting ------------
Integration Time : 20ms
Average : 10
Boxcar : 0
Background removal :  enabled
linearity correction :  enabled
SC :  disabled
Intensity correction :  disabled
DWT denoise :  enabled
savitzky-golay :  disabled
FFT :  disabled
Running average :  disabled
Kalman :  disabled
High pass :  disabled
---------------BEGIN--------------------
Wavelength(nm)             Reflectance(%)
200.29               0
200.75        60.88762
201.21        159.7559
201.67       -6159.384
202.13       -221.6452
202.58       -109.8942
203.04       -58.33014
203.50       -28.70894
203.96       -19.29735
204.42        -31.6884
204.88        -105.349
205.34        2674.271
205.80        274.8563
206.26        266.9684
206.72        41759.89
207.18       -67.83038
207.64       -11.47927
208.10      -0.5218199
208.55       -7.521147
209.01       -145.9393
209.47       -206.7309
209.93       -10.59146
210.39        6.872671
210.85        10.00912
211.31        8.193218
211.77        1.668172
212.23       -14.13082
212.69       -60.67883
213.14        -123.392
213.60       -93.20882
214.06       -56.13755
214.52       -38.52196
214.98       -33.15235
215.44       -35.76878
215.90       -56.87742
216.36        239.8496
216.81        21.15449
217.27        0.282452
217.73       -25.05818
218.19       -131.2167
218.65       -2289.187
219.11       -68.46193
219.57        30.45304
220.02        51.92691
220.48        92.77946
220.94       -47.03148
221.40        8.753235
221.86        18.34859
222.32        21.77435
222.77        23.42885
223.23        24.98615
223.69        26.15089
224.15        24.68344
224.61        20.98879
225.06        17.44568
225.52        15.76089
225.98        16.41415
226.44        19.13451
226.90        23.81376
227.36        30.36592
227.81        36.17896
228.27        38.59036
228.73         38.6226
229.19        36.49857
229.65        32.51696
230.10        27.70628
230.56        22.85385
231.02        19.44626
231.48        19.20462
231.93        21.68152
232.39        25.87217
232.85         30.2617
233.31         32.6923
233.77        32.79275
234.22        31.24409
234.68        29.16141
235.14        28.43351
235.60        29.66983
236.05        32.38731
236.51        35.72197
236.97        37.87874
237.43        38.06299
237.88        37.05917
238.34        35.68019
238.80        34.65533
239.26        34.14489
239.71        36.12753
240.17        37.09359
240.63        39.42116
241.08        40.23237
241.54        38.64117
242.00        36.52921
242.46        36.17473
242.91        38.11851
243.37         42.9066
243.83        48.58675
244.28        40.86805
244.74        7.523549
245.20       -38.38485
245.66       -70.02757
246.11        -74.4119
246.57        -59.4313
247.03       -33.08542
247.48       -8.158067
247.94        3.381557
248.40        2.164395
248.85       -7.874696
249.31       -19.95697
249.77       -20.48555
250.22       -8.359406
250.68        7.628327
251.14        21.53239
251.59        30.55234
252.05        36.05659
252.51        40.11171
252.96        44.07669
253.42        49.51097
253.88        55.24163
254.33          58.605
254.79        58.29731
255.25        54.21702
255.70        48.99334
256.16         44.8457
256.62         42.4518
257.07        42.16674
257.53        43.57536
257.99        45.62178
258.44        47.26288
258.90        47.81368
259.35        47.01353
259.81        45.76304
260.27        44.35293
260.72        43.10233
261.18        42.31664
261.63        41.66825
262.09        41.19151
262.55        40.64814
263.00        39.95744
263.46        39.23691
263.91        38.54759
264.37        38.20043
264.83        38.13957
265.28        38.21438
265.74        38.22137
266.19        37.70302
266.65        36.73209
267.11         35.4418
267.56        34.12145
268.02         33.2427
268.47        32.84206
268.93        32.78577
269.38        32.84275
269.84        32.62395
270.30        32.05706
270.75        31.28678
271.21        30.53943
271.66        30.04762
272.12        29.85843
272.57        29.82491
273.03        29.82755
273.48         29.7189
273.94        29.45297
274.39        29.09065
274.85        28.62884
275.31        27.97196
275.76        27.14904
276.22        26.26276
276.67        25.46791
277.13         25.0649
277.58        25.01195
278.04        25.21959
278.49        25.44171
278.95        25.34236
279.40         24.8341
279.86        24.12837
280.31        23.34818
280.77        22.74474
281.22        22.30568
281.68        21.97766
282.13        21.71811
282.59        21.53207
283.04        21.38657
283.50        21.30886
283.95        21.21997
284.41        21.01544
284.86        20.68067
285.32        20.27781
285.77        19.89782
286.22        19.73385
286.68        19.81949
287.13         20.0583
287.59        20.36139
288.04        20.56282
288.50        20.63661
288.95        20.60749
289.41         20.5247
289.86        20.42531
290.32        20.34875
290.77        20.26714
291.22        20.19596
291.68         20.1507
292.13        20.13328
292.59        20.17818
293.04        20.28156
293.50        20.44489
293.95        20.66269
294.40         20.9342
294.86        21.28523
295.31        21.75983
295.77        22.35179
296.22        23.01976
296.68        23.69005
297.13        24.23869
297.58        24.61881
298.04        24.88515
298.49         25.0463
298.95        25.15351
299.40        25.23263
299.85        25.28642
300.31        25.42209
300.76        25.77669
301.21        26.36538
301.67        27.13779
302.12        27.91389
302.58        28.42565
303.03         28.6046
303.48        28.54337
303.94        28.41898
304.39        28.44907
304.84        28.70049
305.30        29.09234
305.75        29.50835
306.20        29.79907
306.66        29.93122
307.11        29.94419
307.57        29.90505
308.02         29.8483
308.47        29.81351
308.93        29.79118
309.38        29.76708
309.83        29.75968
310.29        29.76619
310.74        29.76891
311.19        29.77069
311.65        29.76888
312.10        29.74671
312.55        29.70483
313.00        29.60087
313.46        29.37393
313.91        29.01883
314.36        28.58001
314.82        28.14493
315.27        27.84012
315.72        27.70306
316.18         27.6934
316.63        27.75591
317.08        27.80172
317.53         27.7942
317.99        27.75017
318.44        27.66891
318.89        27.54022
319.35        27.36686
319.80        27.14314
320.25        26.89654
320.70        26.68067
321.16        26.50184
321.61        26.35602
322.06        26.20767
322.51        25.99628
322.97        25.71038
323.42        25.38133
323.87        25.04464
324.32        24.75965
324.78        24.53977
325.23        24.37022
325.68        24.23099
326.13        24.09256
326.59        23.93338
327.04        23.77939
327.49        23.61467
327.94        23.42133
328.39        23.19958
328.85        22.94564
329.30        22.70204
329.75        22.52244
330.20        22.42092
330.66        22.37546
331.11        22.35692
331.56        22.28287
332.01        22.13154
332.46          21.923
332.92        21.68501
333.37        21.49559
333.82        21.36714
334.27        21.28067
334.72        21.21455
335.17        21.13313
335.63        21.01612
336.08        20.88699
336.53        20.75151
336.98        20.62581
337.43        20.51559
337.88        20.41725
338.34        20.31835
338.79        20.20122
339.24        20.06691
339.69        19.92888
340.14        19.81026
340.59        19.74831
341.05        19.74692
341.50        19.78548
341.95         19.8447
342.40         19.8982
342.85        19.93058
343.30        19.94898
343.75        19.92552
344.20         19.8187
344.66        19.63957
345.11        19.40409
345.56        19.18268
346.01        19.08045
346.46        19.11944
346.91        19.26646
347.36        19.46219
347.81        19.61148
348.26        19.68071
348.72        19.69004
349.17        19.65788
349.62        19.62212
350.07        19.59581
350.52        19.56819
350.97        19.52075
351.42        19.42946
351.87        19.29335
352.32        19.12302
352.77        18.96184
353.22        18.87492
353.67        18.87138
354.13        18.93544
354.58         18.9935
355.03        18.94777
355.48        18.78396
355.93         18.5425
356.38        18.29263
356.83        18.14293
357.28        18.11979
357.73        18.18372
358.18        18.29339
358.63        18.38176
359.08        18.42027
359.53        18.42599
359.98         18.3932
360.43        18.31482
360.88        18.19349
361.33        18.02547
361.78        17.83897
362.23         17.6795
362.68        17.56176
363.13        17.48811
363.58        17.42594
364.03        17.32002
364.48        17.16191
364.93        16.96371
365.38        16.79014
365.83        16.73929
366.28        16.82218
366.73        17.00659
367.18        17.18376
367.63        17.17963
368.08         16.9585
368.53        16.57359
368.98        16.15809
369.43        15.91645
369.88        15.89445
370.33        16.03594
370.78        16.21922
371.23        16.23539
371.68        16.03301
372.13        15.68655
372.58        15.31873
373.03        15.11385
373.48        15.11346
373.93        15.24975
374.38        15.43352
374.83        15.51941
375.28        15.46021
375.72        15.30095
376.17         15.0999
376.62        14.91146
377.07        14.75591
377.52        14.60875
377.97        14.47635
378.42        14.37692
378.87        14.31179
379.32        14.28338
379.77        14.26465
380.22         14.2082
380.67        14.10565
381.11        13.97175
381.56        13.83015
382.01        13.73754
382.46        13.70859
382.91        13.72137
383.36        13.75074
383.81        13.75903
384.26        13.73471
384.71        13.69259
385.15        13.62846
385.60        13.55136
386.05        13.46314
386.50         13.3615
386.95        13.27161
387.40        13.23216
387.85        13.24603
388.29        13.29426
388.74        13.35041
389.19        13.34356
389.64        13.26311
390.09        13.12883
390.54        12.98829
390.98        12.90674
391.43        12.90389
391.88        12.97786
392.33         13.0781
392.78        13.06817
393.23        12.96849
393.67        12.93023
394.12        12.96082
394.57        12.93161
395.02        12.84149
395.47         12.7567
395.91        12.68661
396.36        12.60821
396.81        12.53505
397.26        12.48068
397.71        12.43492
398.15        12.39473
398.60        12.37606
399.05        12.30563
399.50        12.21569
399.95        12.29358
400.39        12.48135
400.84        12.42134
401.29        12.15239
401.74          12.035
402.18        12.09236
402.63        12.13585
403.08        12.15562
403.53         12.1209
403.97        12.19621
404.42        12.22138
404.87        12.23541
405.32        12.21424
405.76        12.15514
406.21        12.07061
406.66        11.97503
407.11         11.8952
407.55        11.84234
408.00        11.80795
408.45        11.78914
408.90        11.77625
409.34        11.76362
409.79        11.75142
410.24        11.74188
410.68        11.73548
411.13        11.73279
411.58        11.73346
412.03        11.72335
412.47        11.68327
412.92        11.60999
413.37        11.51314
413.81        11.42321
414.26        11.39419
414.71        11.42674
415.15        11.51166
415.60        11.59932
416.05        11.61164
416.49        11.53014
416.94         11.3848
417.39        11.22902
417.83        11.13969
418.28        11.13305
418.73        11.17966
419.17        11.25163
419.62        11.29627
420.07        11.29555
420.51        11.26656
420.96         11.2132
421.41         11.1317
421.85         11.0249
422.30        10.90173
422.74        10.78437
423.19        10.73985
423.64        10.76572
424.08         10.8338
424.53         10.9017
424.98        10.94225
425.42        10.94503
425.87        10.88268
426.31        10.79333
426.76        10.80568
427.21        10.90079
427.65        10.91431
428.10        10.85299
428.54        10.84072
428.99        10.88364
429.44        10.97014
429.88        11.04698
430.33        10.96854
430.77        10.78574
431.22        10.73542
431.66        10.82456
432.11        10.92417
432.56        10.98225
433.00        11.00523
433.45        10.91197
433.89        10.71895
434.34          10.165
434.78        10.16559
435.23        10.60004
435.67        10.75837
436.12        10.62128
436.57        10.58088
437.01        10.66042
437.46        10.68967
437.90        10.66717
438.35        10.64054
438.79        10.60811
439.24        10.56086
439.68        10.50801
440.13        10.47867
440.57         10.4683
441.02        10.45658
441.46        10.43996
441.91        10.42126
442.35        10.39713
442.80        10.43859
443.24        10.51122
443.69        10.49488
444.13         10.4082
444.58        10.39183
445.02        10.45215
445.47        10.51099
445.91        10.54709
446.36        10.56772
446.80        10.56484
447.24        10.54134
447.69        10.50658
448.13        10.47506
448.58        10.45399
449.02        10.43746
449.47        10.42796
449.91        10.42355
450.36         10.4238
450.80        10.42643
451.25        10.42553
451.69        10.40698
452.13         10.3695
452.58        10.31913
453.02         10.2613
453.47        10.21046
453.91        10.17136
454.36        10.14011
454.80        10.11652
455.24        10.11279
455.69        10.13309
456.13        10.13957
456.58        10.12537
457.02        10.19907
457.46        10.19338
457.91        10.14427
458.35        10.03505
458.79        10.01842
459.24        10.08697
459.68        10.10944
460.13        10.08561
460.57        10.06566
461.01        10.05494
461.46        10.01829
461.90         9.96381
462.34         9.91415
462.79        9.874247
463.23        9.839047
463.68        9.821933
464.12        9.833911
464.56        9.872455
465.01        9.957526
465.45        10.05035
465.89        10.06518
466.34        10.02408
466.78        10.03425
467.22        10.09822
467.67        10.12818
468.11        10.11483
468.55        10.07055
468.99        10.01248
469.44        9.980402
469.88        9.982571
470.32        9.991959
470.77        10.00824
471.21        10.04488
471.65        10.09635
472.10        10.15615
472.54        10.20695
472.98        10.22859
473.42        10.21836
473.87        10.18842
474.31        10.14596
474.75        10.11303
475.20        10.10123
475.64        10.09913
476.08        10.10845
476.52        10.14567
476.97        10.21085
477.41        10.27115
477.85        10.30242
478.29        10.46179
478.74        10.39559
479.18        10.46485
479.62        10.55335
480.06        10.59174
480.50        10.57464
480.95        10.55043
481.39        10.53785
481.83        10.55182
482.27        10.60587
482.72        10.71138
483.16        10.83473
483.60        10.92272
484.04        10.96262
484.48        10.93769
484.93        10.94823
485.37        11.11967
485.81        11.39964
486.25        11.76272
486.69        11.65869
487.14        11.48457
487.58        11.92554
488.02         11.6578
488.46        11.91385
488.90        11.80803
489.34        11.59293
489.79        11.66687
490.23        11.95599
490.67        12.28759
491.11        12.53348
491.55        12.47244
491.99        12.19734
492.43        12.15724
492.88        12.39131
493.32        12.62789
493.76        12.80285
494.20         12.9554
494.64        13.06989
495.08        13.13548
495.52        13.18001
495.96        13.25973
496.41        13.38589
496.85        13.51819
497.29        13.64831
497.73        13.81239
498.17        13.97962
498.61        14.05984
499.05        14.06285
499.49        14.05757
499.93        14.08617
500.37        14.20944
500.82         14.4056
501.26        14.55341
501.70        14.63674
502.14        14.73183
502.58        14.84007
503.02        14.92342
503.46        14.98111
503.90        15.02479
504.34        15.05724
504.78        15.08304
505.22         15.1084
505.66        15.13318
506.10        15.15687
506.54        15.21044
506.98        15.30159
507.42        15.36332
507.86        15.37905
508.30        15.63757
508.74        15.61897
509.18        15.73667
509.62        15.82531
510.06        15.88375
510.50        15.90656
510.94         15.9022
511.38        15.88982
511.82        15.88638
512.26        15.90049
512.70        15.93005
513.14        15.96314
513.58        15.98052
514.02        15.97715
514.46        15.95624
514.90        15.93547
515.34        15.94198
515.78        15.98166
516.22        16.05039
516.66        16.11551
517.10        16.12615
517.54        16.07493
517.98        15.97519
518.42        15.88124
518.86        15.87957
519.30        15.98381
519.74          16.165
520.18        16.34966
520.62        16.41826
521.06        16.34345
521.50         16.1645
521.93        15.95281
522.37        15.82285
522.81        15.80407
523.25        15.86062
523.69        15.94542
524.13        15.98409
524.57        15.95563
525.01        15.88759
525.45        15.80469
525.89        15.74326
526.32        15.71393
526.76        15.70261
527.20        15.69926
527.64        15.69305
528.08        15.67842
528.52        15.65986
528.96        15.63585
529.40        15.60259
529.83        15.55794
530.27        15.50528
530.71        15.44662
531.15        15.38793
531.59        15.33125
532.03        15.27712
532.46        15.22496
532.90        15.17398
533.34         15.1274
533.78        15.09039
534.22        15.06346
534.66        15.04579
535.09        15.03348
535.53        15.02418
535.97        15.02314
536.41        15.02857
536.85        15.03735
537.28        15.08866
537.72        15.15505
538.16        15.09671
538.60        14.95823
539.04        14.96053
539.47        15.09188
539.91        15.16074
540.35        15.16095
540.79        15.21136
541.22        15.30356
541.66         15.3768
542.10        15.42862
542.54        15.45518
542.97        15.47774
543.41        15.59116
543.85        15.77384
544.29        15.89616
544.72        15.95363
545.16        16.05439
545.60        16.19623
546.04        16.31942
546.47        16.42104
546.91        16.52568
547.35         16.6337
547.79        16.74427
548.22        16.86206
548.66         16.9934
549.10        17.14476
549.53        17.35499
549.97        17.59484
550.41        17.77502
550.84        17.87833
551.28        17.94684
551.72        18.00134
552.15        18.06195
552.59        18.14946
553.03        18.25065
553.46        18.35861
553.90        18.48816
554.34        18.62763
554.77        18.75571
555.21        18.87623
555.65        19.00955
556.08        19.15023
556.52        19.28678
556.96         19.4022
557.39        19.49039
557.83        19.55686
558.27        19.57847
558.70        19.58156
559.14        19.65436
559.57        19.78383
560.01        19.88059
560.45        19.93413
560.88        19.99983
561.32        20.08647
561.75        20.14386
562.19        20.19907
562.63        20.27333
563.06        20.36258
563.50        20.52455
563.93        20.71083
564.37        20.70312
564.80        20.55906
565.24        20.63754
565.68        20.90303
566.11        21.03664
566.55        21.03447
566.98        21.06272
567.42        21.13733
567.85        21.27903
568.29        21.35275
568.72        21.45768
569.16        21.55933
569.60         21.7788
570.03        21.94668
570.47        22.13377
570.90        22.23603
571.34        22.50178
571.77        22.75426
572.21        22.58144
572.64        22.57665
573.08        22.80193
573.51         23.0285
573.95        23.17432
574.38        23.15268
574.82        23.06621
