SpectraSmart Spectrum 2.9.0.0
--------- Device Information -----------
Spectrum Name :  反射率_0
Saving Time :  2024/05/03 21:01:00
Spectro-Module Model Name : SE2030-DUVN
Spectro-Module Serial Number : OS361AC55029948
Wavelength Start : 200
Wavelength End : 1025
Wavelength Unit : Wavelength(nm)
Spectrum Unit : Reflectance(%)
-----------Spectrum Setting ------------
Integration Time : 20ms
Average : 10
Boxcar : 0
Background removal :  enabled
linearity correction :  enabled
SC :  disabled
Intensity correction :  disabled
DWT denoise :  enabled
savitzky-golay :  disabled
FFT :  disabled
Running average :  disabled
Kalman :  disabled
High pass :  disabled
---------------BEGIN--------------------
Wavelength(nm)             Reflectance(%)
200.29               0
200.75        66.75484
201.21        147.0955
201.67       -4857.376
202.13       -157.1053
202.58       -71.03668
203.04       -31.33716
203.50        -7.89545
203.96        1.409588
204.42       -3.050618
204.88       -42.89749
205.34        1521.747
205.80        171.9399
206.26        168.6555
206.72        24626.15
207.18       -31.46276
207.64       -5.058973
208.10       -14.34755
208.55       -69.50929
209.01       -648.4091
209.47       -939.9462
209.93       -107.3999
210.39       -23.26144
210.85      -0.2904442
211.31        7.414811
211.77         9.64002
212.23        8.985948
212.69        2.903127
213.14       -5.343508
213.60       -2.256915
214.06        2.478221
214.52        4.949316
214.98        6.280077
215.44        7.557339
215.90        10.81547
216.36       -44.55511
216.81        -12.3315
217.27       -22.97766
217.73       -60.94032
218.19       -274.1158
218.65       -5672.832
219.11       -369.9019
219.57        -73.9971
220.02       -27.31995
220.48        -60.5072
220.94        129.3677
221.40        61.12203
221.86        52.24205
222.32        51.73092
222.77        55.19337
223.23        63.38017
223.69        76.86185
224.15        86.00299
224.61        82.38878
225.06        73.12578
225.52        66.84703
225.98        66.92548
226.44        72.89887
226.90         83.8814
227.36        98.58089
227.81           109.4
228.27        110.4632
228.73        105.5239
229.19        98.13917
229.65        91.07135
230.10        84.98238
230.56         79.9719
231.02          76.377
231.48        74.95129
231.93        75.28424
232.39        77.07238
232.85        79.31232
233.31        80.74043
233.77        81.05865
234.22        80.46178
234.68         79.6376
235.14        79.79024
235.60        81.22034
236.05        83.77303
236.51        86.10746
236.97        85.94873
237.43        82.83257
237.88        77.90225
238.34        73.08997
238.80        70.40456
239.26         70.2053
239.71        73.85866
240.17        80.15057
240.63        87.67088
241.08        90.39439
241.54        86.19047
242.00        79.41051
242.46        75.20351
242.91        74.05495
243.37        74.02326
243.83        73.36134
244.28        65.03234
244.74        44.54375
245.20        21.54953
245.66         5.22701
246.11       -3.966286
246.57       -8.049593
247.03       -7.672978
247.48       -5.012307
247.94       -2.569925
248.40      -0.3374309
248.85        1.579928
249.31        5.107693
249.77         12.0507
250.22        20.47701
250.68        28.15504
251.14        34.13918
251.59        38.97068
252.05        43.93968
252.51        50.00497
252.96        58.38744
253.42        68.16938
253.88        75.47145
254.33        78.71127
254.79        77.67945
255.25         72.9872
255.70        67.55348
256.16        63.54661
256.62        61.65566
257.07        62.42101
257.53        65.35493
257.99        68.97703
258.44        71.99294
258.90        73.53743
259.35        73.16403
259.81        72.14873
260.27        70.56044
260.72        68.48886
261.18        66.63246
261.63        64.77238
262.09        63.46834
262.55         62.8452
263.00        62.69875
263.46        62.93854
263.91        63.23112
264.37         63.4538
264.83        63.44249
265.28        63.23258
265.74         62.8105
266.19        61.83877
266.65        60.50117
267.11        58.83097
267.56        57.18794
268.02        56.20579
268.47        55.89575
268.93        56.11846
269.38        56.44122
269.84        56.12247
270.30        55.05044
270.75        53.50322
271.21        52.00485
271.66        51.17614
272.12         51.1246
272.57        51.51538
273.03        52.02687
273.48        52.16933
273.94        51.80196
274.39        51.11592
274.85        50.14353
275.31        48.79026
275.76        47.15482
276.22        45.39945
276.67        43.86483
277.13        43.17259
277.58        43.24934
278.04        43.90933
278.49        44.61683
278.95        44.58723
279.40        43.63417
279.86        42.18739
280.31        40.58651
280.77        39.42229
281.22        38.69541
281.68        38.26107
282.13        37.95246
282.59        37.64588
283.04        37.25331
283.50        36.87169
283.95        36.45347
284.41        35.96663
284.86        35.39451
285.32         34.7882
285.77        34.18752
286.22        33.74161
286.68        33.48836
287.13        33.33951
287.59        33.27628
288.04         33.1951
288.50        33.08692
288.95        32.94409
289.41        32.75489
289.86        32.44882
290.32        32.06169
290.77        31.59894
291.22        31.15954
291.68        30.86882
292.13        30.73758
292.59        30.76342
293.04        30.87602
293.50        30.97803
293.95        31.03458
294.40        31.07601
294.86        31.18125
295.31        31.45733
295.77        31.91741
296.22         32.5045
296.68        33.10615
297.13        33.53998
297.58        33.75395
298.04        33.83614
298.49        33.85374
298.95        33.95422
299.40        34.16269
299.85         34.4372
300.31        34.81324
300.76          35.313
301.21         35.9244
301.67        36.63814
302.12        37.29777
302.58        37.68676
303.03         37.7557
303.48        37.58483
303.94        37.38631
304.39        37.41449
304.84        37.73839
305.30        38.26607
305.75        38.81705
306.20        39.14413
306.66         39.2053
307.11        39.07442
307.57        38.88554
308.02        38.75861
308.47        38.75517
308.93        38.82606
309.38        38.93144
309.83        39.06137
310.29        39.19553
310.74        39.32928
311.19        39.42434
311.65        39.40955
312.10        39.26523
312.55        39.01352
313.00        38.70422
313.46        38.42354
313.91        38.18514
314.36          37.985
314.82        37.81242
315.27        37.63164
315.72        37.44401
316.18        37.26884
316.63          37.116
317.08        37.00264
317.53        36.92864
317.99        36.87187
318.44        36.83184
318.89        36.79387
319.35        36.74478
319.80         36.6828
320.25        36.58417
320.70        36.41916
321.16         36.1784
321.61        35.87955
322.06         35.5493
322.51        35.23819
322.97        34.96606
323.42        34.73833
323.87        34.54075
324.32        34.34929
324.78        34.15284
325.23        33.96838
325.68        33.80664
326.13        33.68919
326.59         33.6058
327.04        33.56225
327.49        33.52042
327.94         33.4346
328.39        33.28939
328.85        33.08237
329.30        32.85685
329.75        32.65281
330.20        32.48589
330.66        32.33737
331.11        32.19954
331.56        32.01393
332.01        31.77431
332.46         31.5067
332.92          31.239
333.37        31.05497
333.82        30.96204
334.27        30.93608
334.72        30.95892
335.17         30.9999
335.63        31.02666
336.08        31.05713
336.53        31.05198
336.98        30.96444
337.43        30.78976
337.88        30.54403
338.34        30.27171
338.79        30.05202
339.24        29.91306
339.69        29.84771
340.14        29.83803
340.59        29.84881
341.05        29.86377
341.50        29.88723
341.95        29.92708
342.40        30.00196
342.85        30.10381
343.30        30.21206
343.75        30.27813
344.20        30.23155
344.66        30.07442
345.11        29.83836
345.56        29.58638
346.01        29.40892
346.46        29.33791
346.91        29.34976
347.36        29.43577
347.81        29.58062
348.26        29.76035
348.72        29.96494
349.17        30.14809
349.62        30.24538
350.07        30.24051
350.52        30.15191
350.97        29.99615
351.42        29.80736
351.87        29.60791
352.32        29.39437
352.77        29.20823
353.22        29.11235
353.67        29.11273
354.13        29.19774
354.58        29.28686
355.03        29.27469
355.48        29.13857
355.93        28.91193
356.38        28.65285
356.83        28.45599
357.28        28.34616
357.73        28.29179
358.18        28.26091
358.63        28.20166
359.08        28.09942
359.53        27.97799
359.98        27.84509
360.43         27.7111
360.88        27.57787
361.33        27.42858
361.78        27.28034
362.23        27.16107
362.68        27.07306
363.13        27.01971
363.58        26.94456
364.03        26.75744
364.48         26.4523
364.93         26.0589
365.38        25.69047
365.83        25.52034
366.28        25.57613
366.73        25.80252
367.18        26.05712
367.63        26.10694
368.08        25.89434
368.53        25.48949
368.98        25.02874
369.43        24.72113
369.88        24.61927
370.33        24.66367
370.78        24.75035
371.23        24.70594
371.68        24.48607
372.13        24.15327
372.58        23.81196
373.03        23.61427
373.48        23.59081
373.93        23.68451
374.38        23.79985
374.83        23.78483
375.28        23.59902
375.72        23.28852
376.17        22.95164
376.62        22.68903
377.07        22.52731
377.52        22.43216
377.97        22.36607
378.42        22.27333
378.87        22.14097
379.32        21.99418
379.77        21.85883
380.22         21.7649
380.67        21.71502
381.11        21.69764
381.56        21.68012
382.01        21.62929
382.46        21.53753
382.91        21.41858
383.36        21.29501
383.81         21.1974
384.26        21.13238
384.71        21.09102
385.15        21.05263
385.60        21.00244
386.05        20.92793
386.50        20.83179
386.95        20.73036
387.40        20.64773
387.85        20.58709
388.29        20.53181
388.74        20.47258
389.19        20.34827
389.64        20.15274
390.09        19.90429
390.54        19.66033
390.98        19.49395
391.43        19.43239
391.88        19.48705
392.33         19.5903
392.78        19.54738
393.23        19.39178
393.67        19.34394
394.12        19.41465
394.57        19.41665
395.02        19.34478
395.47        19.29381
395.91        19.26534
396.36        19.20387
396.81        19.12253
397.26        19.04893
397.71        18.97298
398.15        18.90098
398.60        18.86161
399.05        18.73944
399.50        18.59407
399.95        18.72553
400.39        19.04657
400.84        19.01062
401.29        18.65002
401.74        18.47432
402.18        18.51049
402.63        18.47729
403.08        18.39711
403.53        18.28289
403.97        18.39601
404.42        18.48137
404.87        18.55946
405.32        18.53294
405.76         18.3862
406.21        18.15997
406.66        17.91554
407.11        17.75398
407.55        17.70518
408.00        17.73513
408.45        17.80569
408.90        17.84246
409.34        17.81742
409.79        17.75206
410.24        17.67299
410.68        17.61439
411.13        17.58704
411.58        17.57792
412.03        17.56303
412.47        17.51031
412.92        17.41083
413.37        17.28238
413.81        17.16177
414.26        17.11663
414.71        17.14596
415.15        17.23885
415.60        17.33131
416.05        17.33012
416.49        17.21462
416.94        17.02345
417.39        16.82364
417.83        16.71091
418.28        16.70555
418.73        16.76898
419.17        16.86822
419.62        16.93802
420.07        16.95405
420.51        16.93344
420.96        16.87545
421.41          16.764
421.85        16.60312
422.30        16.41427
422.74        16.23048
423.19        16.14945
423.64         16.1695
424.08        16.24409
424.53        16.33076
424.98        16.42117
425.42        16.50397
425.87        16.52792
426.31        16.50539
426.76        16.55901
427.21        16.64539
427.65        16.53032
428.10        16.28598
428.54        16.19625
428.99        16.29038
429.44        16.51947
429.88         16.7451
430.33        16.65917
430.77        16.32585
431.22        16.13956
431.66         16.1524
432.11        16.24416
432.56        16.35908
433.00        16.46949
433.45        16.42451
433.89        16.22694
434.34         15.4376
434.78         15.3956
435.23        15.94054
435.67         16.0959
436.12         15.8527
436.57        15.75037
437.01        15.82384
437.46        15.84531
437.90        15.81387
438.35        15.79391
438.79        15.77801
439.24        15.74341
439.68        15.69876
440.13        15.68991
440.57        15.69818
441.02         15.6756
441.46         15.6157
441.91        15.52655
442.35        15.42938
442.80         15.4639
443.24        15.58389
443.69        15.60514
444.13        15.52276
444.58        15.49253
445.02        15.51583
445.47        15.49563
445.91        15.44799
446.36        15.45536
446.80        15.51763
447.24        15.61416
447.69        15.70937
448.13        15.74603
448.58        15.71419
449.02        15.62948
449.47        15.53421
449.91        15.48371
450.36         15.4952
450.80        15.54797
451.25        15.61033
451.69         15.6257
452.13        15.58267
452.58        15.50072
453.02        15.40949
453.47        15.36223
453.91        15.37015
454.36         15.4154
454.80        15.46445
455.24         15.4879
455.69        15.48389
456.13        15.41194
456.58        15.30062
457.02        15.37278
457.46        15.38695
457.91        15.37727
458.35        15.28498
458.79        15.29244
459.24        15.37774
459.68        15.36235
460.13        15.26585
460.57        15.19446
461.01        15.16402
461.46        15.11181
461.90        15.04673
462.34        15.00251
462.79        14.98126
463.23        14.97438
463.68        14.98947
464.12        15.02302
464.56        15.06687
465.01         15.1596
465.45        15.25254
465.89        15.23237
466.34        15.13751
466.78         15.1256
467.22        15.20181
467.67        15.23688
468.11        15.21724
468.55        15.16119
468.99        15.08587
469.44        15.03554
469.88        15.02044
470.32        15.00533
470.77        14.99942
471.21        15.04031
471.65        15.12443
472.10         15.2356
472.54        15.34372
472.98        15.41184
473.42        15.43019
473.87        15.41507
474.31        15.37174
474.75        15.32533
475.20        15.29134
475.64        15.25577
476.08        15.22399
476.52        15.22502
476.97         15.2637
477.41         15.2948
477.85        15.28922
478.29        15.48996
478.74        15.37576
479.18        15.47685
479.62        15.62149
480.06        15.70433
480.50        15.71375
480.95        15.72365
481.39        15.74352
481.83        15.76442
482.27        15.80056
482.72        15.87657
483.16        15.97687
483.60        16.05894
484.04        16.11603
484.48          16.152
484.93         16.2443
485.37          16.419
485.81        16.71451
486.25        17.07884
486.69        17.33417
487.14        17.17991
487.58        17.32346
488.02         16.7898
488.46        17.34473
488.90         16.9052
489.34        16.83021
489.79        16.84602
490.23        17.18336
490.67        17.53352
491.11        17.78719
491.55        17.82063
491.99        17.68286
492.43        17.69871
492.88        17.89238
493.32        18.05983
493.76        18.16471
494.20        18.26377
494.64        18.35488
495.08        18.42661
495.52        18.49078
495.96        18.57774
496.41        18.69178
496.85        18.79174
497.29        18.88565
497.73        19.05318
498.17        19.25654
498.61        19.35574
499.05        19.34917
499.49        19.31021
499.93        19.29109
500.37        19.38578
500.82        19.56797
501.26        19.67856
501.70        19.70329
502.14        19.74625
502.58        19.82303
503.02        19.90385
503.46        19.99057
503.90        20.09241
504.34        20.19302
504.78        20.26417
505.22         20.3005
505.66        20.30757
506.10        20.30579
506.54        20.34076
506.98        20.42317
507.42        20.51962
507.86        20.60335
508.30        20.74154
508.74        20.73514
509.18        20.74905
509.62        20.74826
510.06        20.77487
510.50        20.83562
510.94        20.91924
511.38        21.00375
511.82        21.04759
512.26         21.0428
512.70        21.00624
513.14        20.95803
513.58        20.92983
514.02        20.92916
514.46         20.9404
514.90        20.96121
515.34        20.98729
515.78        21.01434
516.22        21.05128
516.66        21.07212
517.10        21.03429
517.54        20.93727
517.98        20.79385
518.42         20.6658
518.86        20.65217
519.30        20.76847
519.74        20.98179
520.18        21.21287
520.62        21.33041
521.06        21.30145
521.50        21.16709
521.93        20.99101
522.37        20.87993
522.81        20.86096
523.25        20.89577
523.69        20.95444
524.13        20.98989
524.57        20.98731
525.01        20.97338
525.45        20.94185
525.89         20.8786
526.32        20.78788
526.76        20.67129
527.20        20.57446
527.64        20.57424
528.08        20.67783
528.52        20.85851
528.96        21.04046
529.40        21.10188
529.83        21.01335
530.27        20.81815
530.71        20.58664
531.15        20.43139
531.59        20.38289
532.03        20.41033
532.46          20.468
532.90        20.48209
533.34        20.43586
533.78        20.36115
534.22        20.29086
534.66        20.26961
535.09        20.30193
535.53        20.36672
535.97        20.44367
536.41        20.48865
536.85        20.48748
537.28        20.50954
537.72         20.5428
538.16        20.43816
538.60        20.26519
539.04        20.30744
539.47        20.53069
539.91        20.64695
540.35        20.63912
540.79        20.67963
541.22        20.76381
541.66        20.81935
542.10        20.84851
542.54        20.84269
542.97        20.83429
543.41        20.95703
543.85        21.18099
544.29        21.32949
544.72        21.39001
545.16         21.4952
545.60        21.63949
546.04        21.74809
546.47        21.81902
546.91        21.88989
547.35        21.96522
547.79        22.04291
548.22        22.13848
548.66        22.27365
549.10        22.45627
549.53        22.73221
549.97        23.04518
550.41        23.24856
550.84        23.31446
551.28        23.30828
551.72        23.27599
552.15        23.27398
552.59        23.33629
553.03        23.43494
553.46        23.55181
553.90         23.6906
554.34        23.83125
554.77        23.95386
555.21        24.06021
555.65        24.17083
556.08        24.28155
556.52        24.37907
556.96        24.45888
557.39        24.53912
557.83        24.62947
558.27        24.69291
558.70        24.73884
559.14        24.84042
559.57        24.97171
560.01        25.03096
560.45         25.0279
560.88        25.06549
561.32        25.16145
561.75        25.24508
562.19        25.33063
562.63        25.40804
563.06        25.46929
563.50        25.61276
563.93        25.79183
564.37        25.74247
564.80         25.5423
565.24        25.63967
565.68        25.97522
566.11        26.12591
566.55        26.08148
566.98        26.05699
567.42        26.09329
567.85        26.23351
568.29        26.31218
568.72         26.4739
569.16        26.66821
569.60        26.85423
570.03         27.0152
570.47        27.18361
570.90        27.35839
571.34        27.41644
571.77        27.81897
572.21        27.68565
572.64        27.94078
573.08        27.77992
573.51        28.35208
573.95        28.35845
574.38        28.16555
574.82        28.12312
