SpectraSmart Spectrum 2.9.0.0
--------- Device Information -----------
Spectrum Name :  反射率_0
Saving Time :  2024/05/03 20:34:47
Spectro-Module Model Name : SE2030-DUVN
Spectro-Module Serial Number : OS361AC55029948
Wavelength Start : 200
Wavelength End : 1025
Wavelength Unit : Wavelength(nm)
Spectrum Unit : Reflectance(%)
-----------Spectrum Setting ------------
Integration Time : 20ms
Average : 10
Boxcar : 0
Background removal :  enabled
linearity correction :  enabled
SC :  disabled
Intensity correction :  disabled
DWT denoise :  enabled
savitzky-golay :  disabled
FFT :  disabled
Running average :  disabled
Kalman :  disabled
High pass :  disabled
---------------BEGIN--------------------
Wavelength(nm)             Reflectance(%)
200.29               0
200.75         14.7583
201.21        32.50289
201.67       -995.7098
202.13       -18.26318
202.58        8.081568
203.04        25.16362
203.50        38.35069
203.96        48.22884
204.42        58.46569
204.88        85.38665
205.34       -854.7677
205.80       -59.41726
206.26       -97.72492
206.72       -37558.77
207.18        182.7858
207.64        131.2844
208.10        123.6732
208.55        148.3357
209.01        368.4506
209.47        178.6137
209.93         32.3727
210.39        28.20492
210.85        30.94282
211.31        37.05305
211.77        48.61551
212.23         77.0216
212.69        149.3988
213.14        200.1813
213.60        106.1322
214.06         42.5798
214.52        17.86483
214.98        11.96267
215.44        18.40346
215.90        58.52033
216.36       -537.7787
216.81       -119.5457
217.27       -116.0015
217.73       -178.8119
218.19       -587.8027
218.65       -11863.92
219.11       -968.7537
219.57       -312.9216
220.02       -225.7997
220.48       -434.8982
220.94        510.3586
221.40        156.2826
221.86        103.2248
222.32        89.98875
222.77        91.00172
223.23         102.556
223.69        124.6681
224.15        140.3931
224.61        134.9052
225.06        120.5283
225.52        111.0953
225.98        112.0244
226.44        122.6628
226.90        141.1588
227.36        165.3181
227.81        182.8645
228.27        183.9146
228.73        174.6124
229.19        160.4265
229.65        145.4277
230.10        131.2477
230.56        118.7715
231.02        109.1568
231.48        104.1301
231.93        102.9658
232.39         104.799
232.85        107.7492
233.31         109.502
233.77         109.458
234.22        107.9413
234.68        106.1967
235.14        106.3935
235.60        109.0771
236.05        114.0069
236.51        118.5979
236.97        118.2657
237.43        112.1284
237.88        102.2433
238.34        92.78477
238.80        88.47172
239.26        90.47919
239.71        100.5644
240.17        120.0153
240.63        140.7624
241.08        147.0162
241.54        133.9071
242.00        114.4613
242.46         103.935
242.91        104.4501
243.37        113.7204
243.83        135.2839
244.28        162.8895
244.74        172.0012
245.20        162.7733
245.66        141.7688
246.11        115.4381
246.57        89.07117
247.03        62.61442
247.48         42.0559
247.94        32.39772
248.40        32.39821
248.85        39.51691
249.31        50.41642
249.77        56.08311
250.22        54.19397
250.68         49.3112
251.14        45.59198
251.59        46.94006
252.05        54.43987
252.51        68.70145
252.96        90.47758
253.42        110.8448
253.88        117.8211
254.33          112.76
254.79        101.8823
255.25        90.84884
255.70        82.42645
256.16        76.95908
256.62        74.16525
257.07        74.03452
257.53        75.98994
257.99        78.60521
258.44        80.61728
258.90        81.24962
259.35         80.1048
259.81        78.54311
260.27        76.54582
260.72        74.13966
261.18        72.04399
261.63        69.96772
262.09        68.61704
262.55        68.24013
263.00        68.56711
263.46        69.44508
263.91        70.26238
264.37        70.53407
264.83        70.10307
265.28        69.20109
265.74        68.14806
266.19        67.01004
266.65        66.01575
267.11        65.00697
267.56        64.12552
268.02        63.72965
268.47        63.74785
268.93        64.12458
269.38        64.47182
269.84        64.12404
270.30        62.99418
270.75        61.31437
271.21         59.6174
271.66        58.52641
272.12        58.16941
272.57        58.25755
273.03        58.47881
273.48        58.34328
273.94        57.74078
274.39        56.85998
274.85        55.81961
275.31         54.6334
275.76        53.35768
276.22        52.07147
276.67        50.94157
277.13         50.3954
277.58        50.32623
278.04        50.63196
278.49        50.86793
278.95        50.42977
279.40         49.1957
279.86        47.55204
280.31         45.8204
280.77        44.58194
281.22        43.80547
281.68        43.36965
282.13        43.03708
282.59        42.58528
283.04        41.91961
283.50        41.17647
283.95        40.40869
284.41        39.74783
284.86        39.18698
285.32        38.71051
285.77        38.24999
286.22        37.79753
286.68        37.35999
287.13        36.91172
287.59        36.49248
288.04         36.0679
288.50        35.66393
288.95        35.25445
289.41        34.85086
289.86        34.42124
290.32        33.99839
290.77        33.56258
291.22        33.17012
291.68        32.88047
292.13        32.67764
292.59         32.5682
293.04        32.47198
293.50        32.28861
293.95        31.99859
294.40        31.64492
294.86        31.34843
295.31        31.26837
295.77        31.43028
296.22        31.77356
296.68        32.16194
297.13        32.37399
297.58        32.34643
298.04        32.16659
298.49        31.93303
298.95         31.8344
299.40        31.89416
299.85        32.05607
300.31        32.27582
300.76        32.45963
301.21        32.58513
301.67        32.68181
302.12          32.731
302.58        32.72648
303.03        32.65912
303.48        32.54091
303.94        32.42603
304.39        32.33967
304.84        32.31074
305.30        32.33247
305.75        32.36375
306.20        32.37319
306.66        32.36028
307.11        32.30855
307.57        32.25321
308.02        32.18483
308.47           32.12
308.93        32.06147
309.38        31.97464
309.83        31.84448
310.29        31.67139
310.74         31.4545
311.19        31.23197
311.65        31.06182
312.10        30.94682
312.55        30.86922
313.00        30.78367
313.46        30.62155
313.91        30.36047
314.36        30.03949
314.82        29.70313
315.27        29.41008
315.72        29.18836
316.18        29.02067
316.63         28.8998
317.08         28.8171
317.53        28.76175
317.99        28.73152
318.44        28.71175
318.89        28.66297
319.35        28.57366
319.80        28.44804
320.25        28.30077
320.70        28.16526
321.16        28.04227
321.61        27.92288
322.06        27.79018
322.51        27.62002
322.97        27.40781
323.42        27.17837
323.87        26.93492
324.32        26.68312
324.78        26.42944
325.23          26.181
325.68        25.96622
326.13          25.835
326.59        25.78448
327.04        25.81479
327.49        25.86554
327.94        25.84398
328.39        25.72279
328.85        25.51558
329.30        25.28038
329.75        25.09665
330.20        24.99178
330.66        24.93355
331.11        24.90356
331.56        24.83623
332.01        24.71578
332.46        24.56799
332.92        24.40876
333.37        24.29194
333.82        24.22438
334.27        24.19426
334.72        24.19831
335.17        24.23299
335.63        24.28122
336.08        24.35044
336.53        24.41999
336.98        24.46742
337.43        24.48345
337.88        24.47241
338.34        24.42707
338.79        24.34219
339.24        24.22674
339.69        24.09351
340.14        23.97683
340.59        23.93104
341.05        23.96602
341.50        24.06318
341.95        24.19428
342.40        24.31538
342.85        24.40541
343.30        24.47239
343.75        24.49703
344.20        24.45306
344.66        24.35133
345.11        24.19772
345.56        24.04306
346.01        23.96417
346.46        23.97962
346.91        24.06914
347.36        24.19688
347.81        24.30249
348.26        24.36591
348.72        24.40348
349.17        24.41973
349.62        24.43151
350.07        24.44135
350.52         24.4338
350.97        24.40797
351.42        24.36762
351.87        24.31211
352.32        24.24653
352.77        24.15868
353.22        24.02697
353.67        23.85649
354.13        23.66831
354.58        23.48728
355.03         23.3698
355.48        23.32705
355.93        23.34331
356.38        23.38775
356.83        23.41148
357.28        23.39685
357.73        23.35088
358.18        23.28795
358.63        23.23347
359.08        23.19386
359.53         23.1608
359.98        23.11221
360.43        23.01722
360.88        22.87076
361.33        22.68118
361.78        22.48662
362.23        22.34351
362.68        22.26086
363.13        22.22445
363.58        22.17926
364.03        22.03739
364.48        21.78752
364.93        21.46455
365.38        21.14262
365.83        20.93423
366.28         20.8615
366.73        20.88377
367.18        20.93897
367.63        20.92661
368.08        20.81639
368.53        20.64264
368.98        20.43475
369.43        20.23406
369.88        20.05779
370.33         19.8928
370.78        19.74493
371.23         19.6309
371.68        19.55125
372.13        19.49927
372.58        19.46301
373.03        19.41876
373.48         19.3536
373.93        19.27059
374.38        19.15144
374.83        18.97244
375.28        18.74137
375.72        18.46838
376.17        18.21393
376.62        18.03258
377.07        17.93151
377.52        17.88767
377.97        17.87377
378.42        17.84396
378.87        17.78216
379.32        17.70542
379.77         17.6084
380.22        17.48012
380.67        17.32447
381.11        17.14709
381.56        16.97744
382.01        16.88406
382.46        16.88299
382.91        16.95338
383.36        17.05071
383.81         17.1065
384.26         17.1018
384.71        17.05298
385.15        16.97433
385.60        16.90936
386.05        16.86079
386.50        16.80894
386.95        16.74753
387.40        16.66815
387.85         16.5726
388.29          16.471
388.74        16.36828
389.19        16.22791
389.64        16.05085
390.09        15.84267
390.54        15.66475
390.98        15.60119
391.43        15.66506
391.88        15.84812
392.33        16.04917
392.78        16.04178
393.23        15.84921
393.67        15.68206
394.12        15.59054
394.57        15.48662
395.02        15.38542
395.47        15.34299
395.91        15.35174
396.36        15.34971
396.81         15.3349
397.26        15.33361
397.71        15.31886
398.15        15.26661
398.60        15.19876
399.05        15.03094
399.50        14.83644
399.95        14.89105
400.39        15.13161
400.84        15.11446
401.29        14.84953
401.74        14.71379
402.18        14.72103
402.63        14.65933
403.08        14.55853
403.53         14.4471
403.97        14.53798
404.42        14.62245
404.87        14.71285
405.32        14.72696
405.76        14.64822
406.21        14.50833
406.66        14.35313
407.11         14.2588
407.55        14.24762
408.00        14.29252
408.45        14.36074
408.90        14.39028
409.34        14.35964
409.79        14.28763
410.24        14.20339
410.68        14.14488
411.13        14.12293
411.58        14.12572
412.03        14.12814
412.47        14.09239
412.92        14.00922
413.37        13.89872
413.81        13.79674
414.26        13.76619
414.71        13.80861
415.15        13.91055
415.60        14.02059
416.05        14.06189
416.49        14.01207
416.94        13.89892
417.39        13.76757
417.83        13.68307
418.28        13.66161
418.73        13.67836
419.17        13.71489
419.62        13.73459
420.07        13.72521
420.51        13.69613
420.96        13.65121
421.41        13.58378
421.85        13.49164
422.30        13.38643
422.74        13.27688
423.19        13.21557
423.64        13.19867
424.08        13.20178
424.53        13.20311
424.98        13.22216
425.42        13.26177
425.87         13.2714
426.31        13.27293
426.76        13.38465
427.21        13.56778
427.65        13.62367
428.10        13.55788
428.54        13.52338
428.99        13.53477
429.44         13.5835
429.88        13.61282
430.33        13.45866
430.77        13.19168
431.22        13.10017
431.66        13.20151
432.11        13.35385
432.56        13.49409
433.00        13.62515
433.45        13.61662
433.89        13.43155
434.34        12.72501
434.78        12.66149
435.23        13.11159
435.67        13.23536
436.12        13.02748
436.57        12.96169
437.01        13.05513
437.46        13.08133
437.90        13.03408
438.35        12.97937
438.79        12.92732
439.24        12.88363
439.68        12.85985
440.13        12.88252
440.57        12.92482
441.02        12.92872
441.46        12.88262
441.91        12.80137
442.35        12.70436
442.80         12.7084
443.24          12.778
443.69        12.76125
444.13        12.66549
444.58        12.63634
445.02        12.67723
445.47        12.70255
445.91        12.70901
446.36        12.73864
446.80        12.78518
447.24        12.83817
447.69        12.88011
448.13        12.88331
448.58        12.84607
449.02        12.77689
449.47        12.70228
449.91        12.65596
450.36        12.64861
450.80        12.66588
451.25        12.69254
451.69        12.69826
452.13        12.67598
452.58        12.63815
453.02        12.58902
453.47        12.54102
453.91        12.49965
454.36        12.46036
454.80        12.42718
455.24         12.4252
455.69        12.46037
456.13        12.48082
456.58        12.47505
457.02        12.57216
457.46        12.56476
457.91        12.50273
458.35        12.36025
458.79        12.31692
459.24        12.36612
459.68        12.35205
460.13        12.29438
460.57        12.28462
461.01        12.33158
461.46        12.38077
461.90        12.41636
462.34        12.42636
462.79        12.40338
463.23        12.35037
463.68        12.29574
464.12        12.27542
464.56        12.29566
465.01        12.37742
465.45        12.47081
465.89        12.46712
466.34        12.39354
466.78        12.38585
467.22        12.45073
467.67         12.4848
468.11        12.47699
468.55        12.43836
468.99        12.38229
469.44        12.34631
469.88        12.33765
470.32        12.32646
470.77        12.31597
471.21        12.33019
471.65        12.36555
472.10        12.41171
472.54        12.45096
472.98        12.46347
473.42        12.44503
473.87        12.40844
474.31        12.35347
474.75        12.29284
475.20        12.23812
475.64        12.18018
476.08        12.13049
476.52        12.12303
476.97        12.16216
477.41        12.20665
477.85        12.22232
478.29        12.38577
478.74        12.27696
479.18        12.32641
479.62        12.40456
480.06        12.44338
480.50        12.43559
480.95         12.4272
481.39        12.42933
481.83        12.44476
482.27        12.48711
482.72        12.57501
483.16        12.66739
483.60        12.71788
484.04        12.71993
484.48        12.60158
484.93        12.50208
485.37        12.72631
485.81        13.16313
486.25        13.48536
486.69        13.21955
487.14        13.01613
487.58         13.2832
488.02        13.13587
488.46        13.42809
488.90        13.14868
489.34        12.79014
489.79         12.7571
490.23        13.09961
490.67        13.47534
491.11        13.74498
491.55        13.72418
491.99        13.47864
492.43        13.42603
492.88        13.59559
493.32        13.70547
493.76        13.72859
494.20        13.77803
494.64        13.85456
495.08        13.92983
495.52        13.99853
495.96        14.06274
496.41        14.12092
496.85        14.14871
497.29        14.17501
497.73        14.29469
498.17        14.48508
498.61        14.62916
499.05        14.69392
499.49        14.68336
499.93        14.62623
500.37        14.61186
500.82         14.6488
501.26        14.66367
501.70        14.66119
502.14        14.70615
502.58        14.79416
503.02          14.878
503.46         14.9496
503.90        15.02166
504.34        15.09011
504.78        15.14608
505.22        15.18927
505.66        15.21808
506.10        15.22661
506.54        15.24373
506.98        15.27916
507.42        15.26395
507.86        15.19695
508.30        15.40588
508.74        15.35413
509.18        15.47085
509.62        15.56756
510.06         15.6151
510.50        15.60145
510.94        15.54285
511.38        15.47823
511.82        15.45668
512.26        15.49294
512.70        15.57273
513.14        15.65932
513.58        15.69608
514.02        15.66912
514.46        15.59303
514.90        15.50729
515.34        15.47495
515.78        15.51186
516.22          15.603
516.66        15.69887
517.10        15.72155
517.54         15.6578
517.98        15.53274
518.42         15.4128
518.86        15.40271
519.30        15.52067
519.74        15.72792
520.18        15.94722
520.62        16.05402
521.06        16.01563
521.50        15.87219
521.93        15.68351
522.37        15.54605
522.81        15.48861
523.25        15.48228
523.69        15.50103
524.13        15.50337
524.57        15.47787
525.01        15.44616
525.45        15.41585
525.89        15.39478
526.32        15.38495
526.76        15.37699
527.20        15.37827
527.64        15.40533
528.08        15.45626
528.52        15.52599
528.96        15.58265
529.40        15.57601
529.83        15.49648
530.27        15.36319
530.71        15.22038
531.15         15.1383
531.59        15.13267
532.03        15.18573
532.46        15.25328
532.90        15.26315
533.34        15.20123
533.78         15.0946
534.22        14.98676
534.66        14.94084
535.09        14.96556
535.53        15.03732
535.97        15.12183
536.41        15.15368
536.85        15.11595
537.28        15.07235
537.72        15.03442
538.16        14.92492
538.60        14.80289
539.04        14.86333
539.47        15.06842
539.91        15.18703
540.35        15.19893
540.79        15.23575
541.22        15.29717
541.66        15.33474
542.10        15.35205
542.54        15.34102
542.97         15.3242
543.41        15.39901
543.85        15.54503
544.29         15.6363
544.72        15.66901
545.16        15.74766
545.60         15.8687
546.04        15.97292
546.47        16.05589
546.91        16.13966
547.35        16.22387
547.79        16.30786
548.22        16.39613
548.66         16.4948
549.10         16.6104
549.53        16.78059
549.97        16.97813
550.41        17.11953
550.84        17.18893
551.28        17.22554
551.72        17.24937
552.15        17.27932
552.59        17.33516
553.03        17.40618
553.46        17.48196
553.90        17.57005
554.34        17.65982
554.77        17.73382
555.21        17.80671
555.65        17.91571
556.08        18.05817
556.52        18.21566
556.96        18.35804
557.39        18.45846
557.83        18.51563
558.27        18.51224
558.70        18.48008
559.14        18.51425
559.57        18.60738
560.01        18.67374
560.45        18.70025
560.88        18.73352
561.32        18.78152
561.75        18.80009
562.19        18.82281
562.63        18.88148
563.06        18.97285
563.50        19.14496
563.93        19.34014
564.37        19.33476
564.80        19.17931
565.24        19.21602
565.68        19.42059
566.11        19.51372
566.55        19.49697
566.98        19.51266
567.42        19.57666
567.85         19.7146
568.29         19.7889
568.72        19.87981
569.16        19.96556
569.60        20.09297
570.03        20.26096
570.47        20.41798
570.90         20.5311
571.34        20.71365
571.77        20.93664
572.21        20.81111
572.64        20.94605
573.08        20.90252
573.51        21.36546
573.95        21.46854
574.38        21.38708
574.82        21.36919
