SpectraSmart Spectrum 2.9.0.0
--------- Device Information -----------
Spectrum Name :  反射率_0
Saving Time :  2024/05/03 20:57:07
Spectro-Module Model Name : SE2030-DUVN
Spectro-Module Serial Number : OS361AC55029948
Wavelength Start : 200
Wavelength End : 1025
Wavelength Unit : Wavelength(nm)
Spectrum Unit : Reflectance(%)
-----------Spectrum Setting ------------
Integration Time : 20ms
Average : 10
Boxcar : 0
Background removal :  enabled
linearity correction :  enabled
SC :  disabled
Intensity correction :  disabled
DWT denoise :  enabled
savitzky-golay :  disabled
FFT :  disabled
Running average :  disabled
Kalman :  disabled
High pass :  disabled
---------------BEGIN--------------------
Wavelength(nm)             Reflectance(%)
200.29               0
200.75       -4.285327
201.21       -40.12034
201.67        2510.574
202.13        123.1871
202.58        83.10976
203.04         68.4936
203.50          61.094
203.96        57.14715
204.42        55.16116
204.88        56.04384
205.34       -40.39532
205.80        38.76035
206.26        29.92165
206.72       -6938.703
207.18        89.11918
207.64        94.85854
208.10        129.7411
208.55        260.9167
209.01        1531.454
209.47        2156.491
209.93        341.7546
210.39        154.9816
210.85          105.16
211.31        93.73139
211.77        100.8486
212.23        132.9577
212.69        222.8245
213.14        285.0426
213.60        165.5379
214.06        88.13676
214.52        59.47807
214.98        54.59917
215.44        67.76296
215.90        135.4359
216.36       -863.6126
216.81       -172.2513
217.27       -179.7625
217.73       -318.3901
218.19       -1175.732
218.65       -23999.29
219.11       -1783.822
219.57       -492.4153
220.02       -297.0779
220.48       -514.5563
220.94        600.6903
221.40        191.1299
221.86         132.341
222.32        119.9376
222.77        125.1365
223.23        145.7663
223.69        182.2613
224.15        206.4345
224.61        194.9674
225.06        169.0167
225.52        151.6732
225.98        151.7911
226.44        168.0564
226.90        197.7812
227.36        237.8587
227.81        268.8471
228.27        274.0852
228.73        262.1287
229.19        241.8334
229.65        220.1967
230.10         199.819
230.56        182.0165
231.02        167.7632
231.48        158.8369
231.93        154.4847
232.39        153.9216
232.85        155.7103
233.31         158.405
233.77        161.2998
234.22        164.2205
234.68        167.2497
235.14        170.5988
235.60        174.1153
236.05        178.0017
236.51         179.811
236.97        176.1271
237.43        166.9762
237.88        154.2166
238.34        142.5123
238.80        137.0772
239.26        139.1089
239.71         149.727
240.17        172.6487
240.63        195.4158
241.08        200.3858
241.54        181.7717
242.00        156.9634
242.46        145.2508
242.91        149.3818
243.37        168.5106
243.83        207.0953
244.28        245.8904
244.74        238.1135
245.20        191.0373
245.66        136.1718
246.11        96.79819
246.57        73.59858
247.03        59.04076
247.48         51.0138
247.94        47.21625
248.40        45.99031
248.85        47.26809
249.31        50.06986
249.77        51.22936
250.22        50.34845
250.68        49.11776
251.14        49.17804
251.59         52.8009
252.05        61.53732
252.51        77.30756
252.96        103.3948
253.42         135.062
253.88         158.549
254.33        168.0728
254.79        164.5552
255.25        152.6048
255.70        139.1921
256.16        128.7352
256.62        122.1257
257.07        119.9092
257.53         121.417
257.99        124.3488
258.44        127.1659
258.90        129.1203
259.35        129.2716
259.81        129.1321
260.27        128.1976
260.72        125.9921
261.18        123.6746
261.63        120.9651
262.09         119.102
262.55        118.4814
263.00        118.7379
263.46        119.6704
263.91        120.4935
264.37        120.7692
264.83        120.2354
265.28         119.116
265.74        117.6589
266.19         115.567
266.65        113.2128
267.11        110.5272
267.56        107.9819
268.02        106.4806
268.47        105.9837
268.93        106.3234
269.38        106.7898
269.84        106.1833
270.30        104.3228
270.75        101.6281
271.21         99.0061
271.66        97.53162
272.12        97.40133
272.57        98.07572
273.03         98.9421
273.48        99.02168
273.94        98.09351
274.39         96.5201
274.85        94.58797
275.31        92.45905
275.76        90.27588
276.22        88.15215
276.67        86.32457
277.13        85.45745
277.58         85.3603
278.04        85.87064
278.49        86.30761
278.95        85.73724
279.40        83.94775
279.86        81.53616
280.31        78.91511
280.77        76.90547
281.22        75.46121
281.68        74.45398
282.13        73.62778
282.59         72.8331
283.04        71.93362
283.50         71.0653
283.95         70.1853
284.41        69.35197
284.86        68.50049
285.32        67.66996
285.77        66.77032
286.22        65.81629
286.68        64.85706
287.13        63.84917
287.59        62.92609
288.04        62.11827
288.50        61.48054
288.95        60.94616
289.41        60.46555
289.86         59.8775
290.32        59.20367
290.77        58.43401
291.22        57.70292
291.68        57.17137
292.13        56.82075
292.59        56.63245
293.04        56.44876
293.50        56.05907
293.95         55.4287
294.40        54.65469
294.86        53.96104
295.31        53.62862
295.77        53.70774
296.22        54.08184
296.68        54.54294
297.13         54.7569
297.58        54.62103
298.04        54.28046
298.49        53.83684
298.95         53.5131
299.40        53.33718
299.85        53.24619
300.31        53.25965
300.76        53.37048
301.21        53.56874
301.67        53.86415
302.12        54.11707
302.58        54.15424
303.03        53.92629
303.48        53.50851
303.94         53.0977
304.39        52.89455
304.84        52.96508
305.30        53.22868
305.75        53.51561
306.20        53.61417
306.66        53.49681
307.11         53.2153
307.57        52.89811
308.02        52.62967
308.47        52.47184
308.93        52.38886
309.38         52.3423
309.83        52.33985
310.29        52.36486
310.74        52.40035
311.19        52.40927
311.65         52.3225
312.10        52.11584
312.55        51.81328
313.00         51.4518
313.46        51.09726
313.91        50.75904
314.36         50.4458
314.82        50.16929
315.27        49.92837
315.72        49.73062
316.18        49.57693
316.63         49.4626
317.08        49.38365
317.53        49.33117
317.99        49.29432
318.44        49.25596
318.89        49.16585
319.35        49.01426
319.80        48.81153
320.25        48.59732
320.70        48.44635
321.16        48.36035
321.61        48.31971
322.06        48.26625
322.51        48.10824
322.97        47.82383
323.42        47.46628
323.87        47.06945
324.32        46.69388
324.78        46.36201
325.23        46.07055
325.68        45.84415
326.13        45.72859
326.59        45.70956
327.04          45.803
327.49        45.91843
327.94        45.91782
328.39        45.76357
328.85        45.46734
329.30        45.14169
329.75        44.93317
330.20        44.88573
330.66         44.9407
331.11        45.03765
331.56        45.01829
332.01        44.84471
332.46        44.57075
332.92        44.25228
333.37        44.03448
333.82        43.94522
334.27        43.95114
334.72        44.02368
335.17        44.11587
335.63        44.18808
336.08        44.27124
336.53         44.3472
336.98        44.40488
337.43        44.43956
337.88        44.44986
338.34        44.41861
338.79        44.33507
339.24         44.2052
339.69        44.04473
340.14        43.90709
340.59        43.87526
341.05        43.96311
341.50        44.14761
341.95        44.36758
342.40         44.5279
342.85        44.59763
343.30        44.59942
343.75        44.55573
344.20        44.50786
344.66        44.48392
345.11        44.46493
345.56        44.45549
346.01        44.46171
346.46         44.4828
346.91        44.51366
347.36          44.563
347.81        44.63974
348.26        44.74082
348.72        44.87054
349.17        44.97342
349.62        44.97476
350.07        44.86722
350.52        44.67031
350.97        44.47491
351.42         44.4295
351.87         44.5514
352.32        44.77923
352.77        44.99631
353.22        45.01721
353.67        44.80209
354.13        44.43604
354.58        43.98319
355.03        43.57228
355.48        43.25882
355.93        43.02054
356.38        42.87045
356.83        42.82852
357.28        42.87977
357.73         43.0027
358.18        43.15413
358.63        43.25886
359.08        43.28201
359.53        43.23196
359.98        43.07782
360.43        42.78565
360.88        42.36675
361.33        41.83787
361.78        41.29855
362.23        40.89853
362.68        40.67222
363.13        40.59433
363.58         40.5585
364.03        40.38665
364.48        40.04235
364.93        39.57811
365.38        39.12036
365.83         38.8636
366.28        38.84107
366.73        38.98158
367.18        39.14003
367.63         39.0871
368.08        38.76828
368.53        38.26118
368.98        37.70205
369.43        37.29375
369.88        37.08856
370.33        37.02825
370.78        37.01905
371.23        36.90681
371.68        36.64901
372.13        36.29836
372.58        35.94086
373.03        35.69941
373.48        35.59647
373.93        35.58476
374.38        35.57651
374.83        35.43635
375.28        35.13507
375.72        34.71273
376.17        34.28605
376.62        33.96596
377.07         33.7763
377.52        33.67716
377.97        33.61007
378.42        33.48561
378.87        33.28315
379.32          33.038
379.77        32.79514
380.22        32.60989
380.67        32.49244
381.11        32.43086
381.56        32.37555
382.01         32.2762
382.46        32.12108
382.91        31.92409
383.36        31.73494
383.81        31.62341
384.26        31.59547
384.71        31.62881
385.15        31.64256
385.60        31.52912
386.05        31.26582
386.50        30.89464
386.95        30.51853
387.40        30.29064
387.85        30.24014
388.29        30.30304
388.74        30.40726
389.19        30.38067
389.64        30.19066
390.09        29.88446
390.54        29.56588
390.98        29.37232
391.43        29.34803
391.88        29.49137
392.33        29.68492
392.78        29.61567
393.23        29.33831
393.67        29.20752
394.12        29.25125
394.57        29.20539
395.02        29.07001
395.47        28.97962
395.91        28.95056
396.36        28.92263
396.81        28.90929
397.26        28.94092
397.71        28.95311
398.15        28.88353
398.60        28.77037
399.05        28.46748
399.50        28.12228
399.95        28.26887
400.39        28.78947
400.84        28.83106
401.29        28.40568
401.74        28.22704
402.18        28.31935
402.63        28.27811
403.08        28.13643
403.53        27.91078
403.97        28.01198
404.42        28.05185
404.87        28.11261
405.32        28.12959
405.76        28.08357
406.21        28.00132
406.66        27.89956
407.11        27.81411
407.55        27.76073
408.00        27.72062
408.45        27.67843
408.90        27.60211
409.34        27.48652
409.79        27.34816
410.24        27.22284
410.68        27.15412
411.13        27.15219
411.58        27.20305
412.03        27.26423
412.47        27.26736
412.92        27.18517
413.37        27.04111
413.81        26.88368
414.26        26.81269
414.71        26.83051
415.15        26.92696
415.60        27.01799
416.05        26.99174
416.49        26.82699
416.94        26.57361
417.39         26.3307
417.83        26.23828
418.28        26.32309
418.73        26.52942
419.17        26.78292
419.62        26.93961
420.07        26.95477
420.51        26.86436
420.96        26.71116
421.41        26.53671
421.85        26.35622
422.30        26.17897
422.74        26.01228
423.19        25.94249
423.64         25.9563
424.08        26.00334
424.53        26.05264
424.98          26.153
425.42        26.30551
425.87        26.40096
426.31        26.44485
426.76        26.60938
427.21        26.81717
427.65        26.70119
428.10        26.34693
428.54        26.18249
428.99         26.2599
429.44        26.46222
429.88        26.63975
430.33        26.52141
430.77        26.16789
431.22        25.94468
431.66        25.92376
432.11         26.1155
432.56        26.43374
433.00        26.62689
433.45        26.48978
433.89        26.35663
434.34        25.38567
434.78        25.41962
435.23        25.94863
435.67        26.13831
436.12        25.91013
436.57        25.86273
437.01        26.02618
437.46        26.10595
437.90        26.09198
438.35        26.07125
438.79        26.03252
439.24        25.93857
439.68        25.80638
440.13        25.71814
440.57        25.66653
441.02        25.59165
441.46         25.4884
441.91        25.41133
442.35        25.36033
442.80        25.40968
443.24        25.52756
443.69         25.6594
444.13         25.7571
444.58        25.80098
445.02        25.77549
445.47         25.6726
445.91         25.5393
446.36        25.48159
446.80        25.51154
447.24        25.60688
447.69        25.72172
448.13        25.78072
448.58        25.76851
449.02        25.70185
449.47        25.62754
449.91        25.59984
450.36        25.63708
450.80        25.71117
451.25        25.78428
451.69        25.78728
452.13        25.70946
452.58        25.57634
453.02         25.4291
453.47         25.3436
453.91        25.33607
454.36        25.38337
454.80        25.44004
455.24        25.47436
455.69        25.48461
456.13        25.39672
456.58        25.24359
457.02        25.37234
457.46        25.38191
457.91        25.34161
458.35        25.16405
458.79         25.1646
459.24        25.31108
459.68        25.30243
460.13        25.17726
460.57        25.12519
461.01        25.16744
461.46         25.1952
461.90        25.18871
462.34        25.15356
462.79        25.08206
463.23        24.97498
463.68        24.88214
464.12        24.86254
464.56        24.92068
465.01        25.10493
465.45         25.3079
465.89        25.30232
466.34        25.14454
466.78        25.11284
467.22        25.23238
467.67        25.31518
468.11        25.34387
468.55        25.32856
468.99        25.28303
469.44        25.26339
469.88        25.27579
470.32        25.26257
470.77        25.22609
471.21        25.21157
471.65        25.21742
472.10        25.23223
472.54        25.23666
472.98        25.21345
473.42        25.16205
473.87        25.10197
474.31        25.03639
474.75        24.99337
475.20        24.98855
475.64        24.99914
476.08        25.02006
476.52        25.07995
476.97        25.17985
477.41        25.24234
477.85         25.2264
478.29        25.54957
478.74        25.35608
479.18        25.51589
479.62        25.73375
480.06        25.81912
480.50        25.75204
480.95        25.65926
481.39        25.58067
481.83        25.53886
482.27        25.56542
482.72        25.68051
483.16        25.82372
483.60        25.93562
484.04        26.01859
484.48        25.90065
484.93        25.72434
485.37        26.10126
485.81        26.81953
486.25        26.78278
486.69        26.97592
487.14        26.73421
487.58        26.57426
488.02        26.30919
488.46        26.87282
488.90        26.58754
489.34        26.72723
489.79        26.58649
490.23         26.5674
490.67        26.86494
491.11        27.36703
491.55        27.48368
491.99        27.23757
492.43        27.22415
492.88        27.46434
493.32        27.61685
493.76        27.65266
494.20        27.70588
494.64        27.78368
495.08        27.85569
495.52        27.93553
495.96        28.05513
496.41        28.21375
496.85        28.36944
497.29        28.52015
497.73        28.72388
498.17         28.9375
498.61        29.04138
499.05        29.03178
499.49        28.94365
499.93        28.85353
500.37        28.94276
500.82        29.18308
501.26        29.33296
501.70        29.37016
502.14        29.45405
502.58        29.57406
503.02        29.63104
503.46        29.62313
503.90         29.5825
504.34        29.54318
504.78        29.56283
505.22         29.6573
505.66        29.79743
506.10        29.94266
506.54        30.09745
506.98        30.25814
507.42          30.304
507.86        30.20225
508.30        30.55941
508.74        30.31342
509.18         30.3276
509.62         30.3096
510.06        30.33247
510.50        30.39822
510.94        30.50387
511.38        30.63231
511.82        30.72133
512.26        30.75789
512.70        30.75985
513.14        30.73712
513.58        30.70766
514.02        30.67878
514.46        30.63951
514.90        30.60579
515.34        30.60413
515.78        30.63882
516.22        30.71154
516.66        30.78187
517.10        30.78243
517.54        30.70548
517.98        30.57111
518.42        30.44894
518.86        30.45045
519.30        30.59442
519.74        30.84194
520.18        31.10754
520.62        31.25225
521.06        31.23831
521.50        31.10584
521.93        30.92215
522.37        30.80186
522.81        30.77425
523.25        30.80506
523.69        30.85236
524.13        30.84973
524.57         30.7834
525.01        30.68649
525.45        30.58805
525.89        30.52941
526.32        30.51943
526.76        30.53906
527.20        30.58053
527.64        30.63757
528.08         30.6997
528.52        30.76839
528.96        30.81075
529.40        30.77564
529.83         30.6536
530.27        30.46673
530.71        30.26864
531.15        30.14704
531.59        30.12171
532.03        30.17394
532.46        30.24727
532.90        30.24855
533.34        30.16228
533.78        30.02604
534.22        29.89791
534.66         29.8627
535.09        29.92807
535.53         30.0586
535.97         30.2099
536.41        30.29042
536.85        30.27239
537.28        30.26749
537.72        30.26546
538.16        30.06125
538.60        29.76501
539.04        29.79003
539.47        30.08865
539.91        30.24473
540.35        30.23212
540.79        30.30083
541.22        30.43492
541.66        30.51315
542.10         30.5337
542.54        30.48595
542.97        30.42269
543.41        30.54722
543.85        30.81906
544.29        30.98067
544.72         31.0113
545.16        31.09781
545.60        31.23142
546.04        31.30579
546.47        31.32981
546.91        31.37602
547.35        31.45428
547.79        31.55805
548.22        31.68973
548.66        31.84931
549.10        32.04256
549.53        32.34217
549.97        32.69377
550.41        32.93425
550.84        33.03268
551.28        33.06488
551.72        33.06239
552.15         33.0532
552.59        33.07508
553.03        33.10879
553.46        33.15597
553.90         33.2616
554.34          33.409
554.77        33.55768
555.21        33.70164
555.65        33.85558
556.08        34.00822
556.52        34.14708
556.96         34.2617
557.39        34.37075
557.83        34.48466
558.27        34.54617
558.70        34.57832
559.14        34.70177
559.57        34.88276
560.01        34.97765
560.45        34.97456
560.88        34.98014
561.32        35.01703
561.75        34.99628
562.19        34.98235
562.63        35.04067
563.06         35.1669
563.50        35.45207
563.93        35.78578
564.37        35.74744
564.80        35.42793
565.24        35.46163
565.68        35.80371
566.11        35.93831
566.55        35.86628
566.98        35.85749
567.42        35.93922
567.85        36.12336
568.29        36.16315
568.72        36.30279
569.16        36.50883
569.60        36.64076
570.03        36.65212
570.47        36.97371
570.90        37.26571
571.34        36.95583
571.77        37.61397
572.21        37.61188
572.64        37.79577
573.08        37.54779
573.51        38.21946
573.95        38.17515
574.38        37.92344
574.82        37.65938
