SpectraSmart Spectrum 2.9.0.0
--------- Device Information -----------
Spectrum Name :  反射率_0
Saving Time :  2024/05/03 20:56:39
Spectro-Module Model Name : SE2030-DUVN
Spectro-Module Serial Number : OS361AC55029948
Wavelength Start : 200
Wavelength End : 1025
Wavelength Unit : Wavelength(nm)
Spectrum Unit : Reflectance(%)
-----------Spectrum Setting ------------
Integration Time : 20ms
Average : 10
Boxcar : 0
Background removal :  enabled
linearity correction :  enabled
SC :  disabled
Intensity correction :  disabled
DWT denoise :  enabled
savitzky-golay :  disabled
FFT :  disabled
Running average :  disabled
Kalman :  disabled
High pass :  disabled
---------------BEGIN--------------------
Wavelength(nm)             Reflectance(%)
200.29               0
200.75        72.31352
201.21        113.8358
201.67       -2524.199
202.13       -50.72771
202.58       -8.723695
203.04        9.331204
203.50        18.45743
203.96        18.75165
204.42        7.606699
204.88       -44.28144
205.34        1868.961
205.80        219.3808
206.26        221.8768
206.72        33322.73
207.18       -44.75217
207.64       -7.906286
208.10       -18.14883
208.55       -85.57278
209.01       -796.6172
209.47       -1145.283
209.93       -127.7135
210.39       -25.93434
210.85        2.410944
211.31        13.93603
211.77        21.33051
212.23        31.78533
212.69        52.82983
213.14        61.67614
213.60        28.77763
214.06        9.784996
214.52         2.56632
214.98      -0.2529635
215.44       -1.516155
215.90       -1.182822
216.36       -40.47905
216.81       -23.49747
217.27       -40.82117
217.73       -96.42992
218.19       -420.5843
218.65       -9563.131
219.11       -777.2819
219.57       -233.3791
220.02        -152.215
220.48       -278.0085
220.94        326.7256
221.40        101.7743
221.86        68.22649
222.32        59.48827
222.77        59.26439
223.23        65.47572
223.69        77.22846
224.15         83.0529
224.61        75.85014
225.06        64.57404
225.52        58.32071
225.98        60.67373
226.44        71.26982
226.90        89.79254
227.36        113.8863
227.81        130.5641
228.27        130.5734
228.73        120.0733
229.19        106.7578
229.65        96.74465
230.10        90.28033
230.56         86.0631
231.02        82.95954
231.48        80.22758
231.93        77.65383
232.39        75.79819
232.85        74.63114
233.31        74.26484
233.77        74.63226
234.22        75.38361
234.68        76.54862
235.14        78.23615
235.60        80.32646
236.05         82.9501
236.51        84.90457
236.97        84.25117
237.43        80.73742
237.88        75.35316
238.34         70.1097
238.80        67.11784
239.26        66.71109
239.71        70.41792
240.17        76.91981
240.63        84.74272
241.08        87.56261
241.54        83.34099
242.00        76.58443
242.46        72.80075
242.91        72.65212
243.37        74.18998
243.83         76.4407
244.28          73.081
244.74        57.22712
245.20        36.75727
245.66        18.47623
246.11         1.93469
246.57       -12.65224
247.03       -23.63537
247.48       -29.93964
247.94       -31.52941
248.40       -28.78179
248.85       -23.43691
249.31        -14.4654
249.77       -2.845957
250.22        7.725673
250.68        15.93743
251.14        21.46943
251.59        25.19992
252.05        28.51893
252.51        32.04672
252.96        37.31927
253.42        46.23221
253.88        56.64791
254.33        65.01208
254.79            68.8
255.25        67.24111
255.70        63.30021
256.16        59.79808
256.62        57.62615
257.07        57.36849
257.53        58.77459
257.99        60.64579
258.44        62.17434
258.90        62.99946
259.35        62.70812
259.81        62.22582
260.27        61.32596
260.72         59.7951
261.18        58.25827
261.63         56.6362
262.09        55.58863
262.55        55.42946
263.00        55.93929
263.46         56.9069
263.91         57.8473
264.37        58.38253
264.83        58.34263
265.28        57.90473
265.74        57.18885
266.19        56.05593
266.65        54.71673
267.11        53.13594
267.56        51.65715
268.02        50.88244
268.47        50.80952
268.93         51.3201
269.38        51.90847
269.84        51.69832
270.30        50.55694
270.75        48.80021
271.21        47.09027
271.66        46.25946
272.12        46.45295
272.57        47.29211
273.03        48.30832
273.48        48.76155
273.94        48.45527
274.39         47.6666
274.85        46.59282
275.31        45.38526
275.76         44.1582
276.22        42.94007
276.67        41.92083
277.13        41.52835
277.58         41.6673
278.04        42.23428
278.49        42.76017
278.95         42.5654
279.40        41.51104
279.86        39.98745
280.31        38.35309
280.77         37.2137
281.22        36.56373
281.68        36.25631
282.13        36.06363
282.59        35.75861
283.04        35.24407
283.50        34.64573
283.95        34.00632
284.41        33.42352
284.86        32.89925
285.32        32.43406
285.77        31.97943
286.22         31.5463
286.68        31.15203
287.13        30.77266
287.59        30.46431
288.04        30.23351
288.50        30.09404
288.95        29.99871
289.41        29.90523
289.86        29.70007
290.32        29.39412
290.77        29.00499
291.22        28.61256
291.68        28.31659
292.13        28.12363
292.59        28.02416
293.04        27.97511
293.50         27.9305
293.95        27.86991
294.40        27.81854
294.86        27.80886
295.31         27.8752
295.77        28.01885
296.22        28.20515
296.68        28.39911
297.13        28.54974
297.58        28.63606
298.04         28.7014
298.49         28.7214
298.95        28.69402
299.40        28.62142
299.85        28.51744
300.31        28.49056
300.76          28.682
301.21        29.10641
301.67        29.69995
302.12         30.2868
302.58        30.61492
303.03        30.61961
303.48        30.40036
303.94        30.11691
304.39        29.95266
304.84        29.97628
305.30        30.12231
305.75        30.32087
306.20        30.49463
306.66         30.6238
307.11        30.72306
307.57        30.80367
308.02        30.81744
308.47        30.78216
308.93        30.70346
309.38        30.61322
309.83        30.60298
310.29        30.68398
310.74        30.81919
311.19         30.9459
311.65        30.95898
312.10        30.82754
312.55        30.58875
313.00        30.29866
313.46        30.04644
313.91        29.84913
314.36        29.69531
314.82        29.56491
315.27         29.4132
315.72        29.23956
316.18        29.06672
316.63        28.91947
317.08        28.83624
317.53        28.82184
317.99        28.85068
318.44        28.90401
318.89        28.94018
319.35         28.9398
319.80        28.90995
320.25        28.84376
320.70        28.73805
321.16        28.59035
321.61        28.40388
322.06        28.19422
322.51        27.99373
322.97        27.81193
323.42        27.65467
323.87        27.50186
324.32        27.31978
324.78        27.10017
325.23        26.86336
325.68         26.6355
326.13        26.46284
326.59        26.34774
327.04        26.29155
327.49        26.25892
327.94        26.20066
328.39        26.10108
328.85        25.96647
329.30        25.82768
329.75        25.71288
330.20        25.63222
330.66        25.56303
331.11        25.50888
331.56        25.44237
332.01        25.35756
332.46         25.2667
332.92        25.16033
333.37        25.05387
333.82        24.94195
334.27        24.82208
334.72        24.72047
335.17        24.68164
335.63        24.70466
336.08        24.79239
336.53        24.88753
336.98         24.9055
337.43        24.82658
337.88        24.67406
338.34        24.50326
338.79        24.40933
339.24        24.41685
339.69        24.50066
340.14        24.61244
340.59        24.67374
341.05        24.66216
341.50        24.60288
341.95        24.53408
342.40        24.52119
342.85        24.57672
343.30         24.6729
343.75        24.76652
344.20        24.79064
344.66        24.74018
345.11        24.64329
345.56        24.53453
346.01        24.46236
346.46        24.44388
346.91        24.45539
347.36        24.51072
347.81        24.63334
348.26        24.81247
348.72         25.0398
349.17        25.23727
349.62        25.28698
350.07        25.17221
350.52        24.93197
350.97        24.66077
351.42        24.51359
351.87        24.52472
352.32        24.63958
352.77        24.78984
353.22        24.86389
353.67        24.82732
354.13         24.7297
354.58        24.57316
355.03         24.3788
355.48        24.16921
355.93        23.94334
356.38        23.74659
356.83        23.65477
357.28        23.67432
357.73        23.77487
358.18        23.90304
358.63        23.96589
359.08        23.93508
359.53        23.84265
359.98        23.69151
360.43        23.49202
360.88        23.25992
361.33         22.9859
361.78        22.73524
362.23         22.6101
362.68        22.62019
363.13        22.74018
363.58        22.85633
364.03        22.78197
364.48        22.48478
364.93        22.02806
365.38        21.54941
365.83        21.26228
366.28        21.21637
366.73         21.3455
367.18        21.53851
367.63        21.61322
368.08        21.51569
368.53        21.30198
368.98        21.04982
369.43        20.87477
369.88        20.80716
370.33        20.80771
370.78        20.81902
371.23        20.75279
371.68        20.58718
372.13        20.35529
372.58        20.12065
373.03         19.9737
373.48        19.93056
373.93        19.95932
374.38        19.99261
374.83        19.92218
375.28        19.72508
375.72        19.43637
376.17        19.14033
376.62         18.9235
377.07        18.80585
377.52         18.7561
377.97         18.7398
378.42         18.7029
378.87        18.63004
379.32        18.54364
379.77        18.45635
380.22        18.38252
380.67        18.32446
381.11        18.27312
381.56        18.22334
382.01        18.18488
382.46        18.15828
382.91        18.14512
383.36        18.12686
383.81        18.07351
384.26        17.98149
384.71        17.85828
385.15        17.72987
385.60        17.65703
386.05        17.64138
386.50        17.65871
386.95        17.67236
387.40        17.62606
387.85        17.51179
388.29        17.35073
388.74        17.17826
389.19        17.00135
389.64         16.8301
390.09        16.65892
390.54        16.52269
390.98        16.46246
391.43        16.48553
391.88         16.6019
392.33        16.74432
392.78        16.73177
393.23        16.59265
393.67         16.5222
394.12         16.5354
394.57        16.48169
395.02        16.36435
395.47        16.26464
395.91        16.19947
396.36        16.14618
396.81        16.11793
397.26        16.12693
397.71        16.13962
398.15        16.12367
398.60        16.09448
399.05         15.9641
399.50        15.79679
399.95        15.86583
400.39        16.10274
400.84         16.0423
401.29        15.71251
401.74        15.54228
402.18        15.55515
402.63         15.5186
403.08         15.4595
403.53        15.39835
403.97        15.55471
404.42        15.70759
404.87        15.85706
405.32        15.89516
405.76        15.80204
406.21          15.617
406.66        15.40739
407.11        15.28496
407.55        15.28046
408.00        15.35652
408.45        15.46508
408.90        15.51453
409.34        15.47502
409.79        15.37897
410.24        15.26416
410.68        15.17953
411.13        15.14097
411.58        15.13072
412.03        15.13193
412.47        15.12231
412.92        15.08951
413.37        15.04426
413.81        15.00031
414.26        14.99139
414.71        15.01442
415.15        15.06724
415.60        15.11076
416.05        15.09535
416.49        15.01323
416.94        14.88748
417.39        14.76682
417.83        14.72057
418.28        14.76192
418.73        14.86311
419.17        14.98947
419.62        15.07346
420.07        15.09132
420.51        15.05707
420.96        14.98486
421.41        14.88468
421.85        14.76227
422.30        14.62969
422.74        14.49567
423.19        14.41553
423.64        14.38467
424.08        14.37614
424.53        14.37532
424.98        14.41613
425.42        14.50272
425.87        14.57677
426.31        14.63688
426.76        14.77418
427.21        14.93952
427.65        14.92373
428.10        14.77401
428.54        14.72215
428.99        14.79407
429.44          14.957
429.88        15.10472
430.33        14.98936
430.77        14.67767
431.22        14.51525
431.66        14.55104
432.11        14.67604
432.56        14.83625
433.00        15.02051
433.45        15.06828
433.89        14.90519
434.34        14.13565
434.78        14.06817
435.23        14.56538
435.67         14.7014
436.12        14.47433
436.57        14.40383
437.01        14.51835
437.46        14.58396
437.90        14.59193
438.35        14.60835
438.79        14.61975
439.24        14.59412
439.68        14.54088
440.13        14.50741
440.57        14.48782
441.02        14.45826
441.46        14.41782
441.91        14.36543
442.35        14.31705
442.80        14.39797
443.24         14.5619
443.69        14.63821
444.13        14.60715
444.58        14.58924
445.02        14.58294
445.47        14.50786
445.91        14.39715
446.36        14.35504
446.80        14.38976
447.24        14.47508
447.69        14.57521
448.13        14.63043
448.58        14.62742
449.02        14.58402
449.47         14.5296
449.91        14.50014
450.36        14.50876
450.80        14.53681
451.25        14.57159
451.69        14.58857
452.13        14.58186
452.58         14.5627
453.02        14.53312
453.47        14.50201
453.91        14.47317
454.36        14.44302
454.80        14.41338
455.24        14.40973
455.69        14.43893
456.13        14.44189
456.58         14.4116
457.02         14.5066
457.46        14.49003
457.91        14.41933
458.35        14.25867
458.79        14.20546
459.24        14.25069
459.68        14.21809
460.13        14.13957
460.57        14.13487
461.01        14.21477
461.46        14.31016
461.90        14.38867
462.34        14.41595
462.79        14.37676
463.23        14.27922
463.68        14.16698
464.12        14.10018
464.56        14.09405
465.01        14.17253
465.45        14.27004
465.89        14.24871
466.34        14.13961
466.78        14.10358
467.22        14.16551
467.67        14.23705
468.11        14.30913
468.55        14.37896
468.99        14.43396
469.44         14.4764
469.88        14.50267
470.32        14.48748
470.77        14.44704
471.21        14.43269
471.65        14.45094
472.10        14.48563
472.54        14.51787
472.98        14.52692
473.42        14.50728
473.87        14.47402
474.31        14.42658
474.75        14.37641
475.20        14.33512
475.64        14.29401
476.08        14.25742
476.52        14.25231
476.97        14.28343
477.41        14.30503
477.85        14.29771
478.29        14.50258
478.74        14.43172
479.18        14.57678
479.62        14.75834
480.06        14.84541
480.50        14.81602
480.95        14.76475
481.39        14.73041
481.83        14.69704
482.27        14.67558
482.72         14.9043
483.16        14.94264
483.60        15.05295
484.04        15.11279
484.48         15.0661
484.93        15.01668
485.37        15.22454
485.81        15.63656
486.25        15.71707
486.69        15.82054
487.14         15.5106
487.58        15.65808
488.02        15.71059
488.46        16.11959
488.90        15.73264
489.34         15.5213
489.79        15.45552
490.23        15.78531
490.67        16.13033
491.11        16.37445
491.55        16.35738
491.99        16.13993
492.43        16.11748
492.88        16.31674
493.32          16.478
493.76        16.56012
494.20        16.64678
494.64        16.73304
495.08         16.7913
495.52        16.84351
495.96        16.93261
496.41        17.06319
496.85        17.21609
497.29        17.36918
497.73        17.50356
498.17        17.60372
498.61        17.65394
499.05        17.67023
499.49        17.68605
499.93        17.72911
500.37        17.83919
500.82        17.99893
501.26        18.12888
501.70        18.21558
502.14        18.30683
502.58        18.40278
503.02        18.48023
503.46        18.53918
503.90        18.58415
504.34        18.62417
504.78        18.67578
505.22        18.74309
505.66        18.81754
506.10        18.87764
506.54        18.93201
506.98        18.98503
507.42        18.96157
507.86        18.85769
508.30        19.07705
508.74        18.95915
509.18        19.03481
509.62         19.0976
510.06        19.15372
510.50        19.19531
510.94         19.2335
511.38         19.2733
511.82        19.30325
512.26        19.32425
512.70        19.33575
513.14        19.34492
513.58         19.3655
514.02        19.39805
514.46        19.43673
514.90        19.47062
515.34        19.48014
515.78        19.46418
516.22        19.43727
516.66        19.40577
517.10        19.37923
517.54        19.36379
517.98        19.35233
518.42        19.36669
518.86        19.44158
519.30        19.57495
519.74         19.7532
520.18        19.91749
520.62        19.97274
521.06        19.89967
521.50        19.72642
521.93        19.52146
522.37        19.39802
522.81        19.38312
523.25        19.44456
523.69        19.53012
524.13        19.55441
524.57        19.49758
525.01        19.39387
525.45        19.27879
525.89        19.20624
526.32        19.19045
526.76        19.20943
527.20        19.24992
527.64        19.29626
528.08        19.33694
528.52        19.37616
528.96        19.39651
529.40        19.36967
529.83        19.29101
530.27        19.17372
530.71        19.04522
531.15        18.95179
531.59        18.90548
532.03        18.89718
532.46        18.90644
532.90        18.89838
533.34        18.86672
533.78        18.82705
534.22        18.79374
534.66        18.78697
535.09        18.80577
535.53        18.83788
535.97         18.8774
536.41         18.9031
536.85        18.90655
537.28        18.94544
537.72        18.99458
538.16        18.89372
538.60         18.7042
539.04        18.69747
539.47        18.85688
539.91        18.94085
540.35        18.93924
540.79        19.00128
541.22         19.1109
541.66        19.18337
542.10        19.21355
542.54         19.1974
542.97        19.16966
543.41        19.26043
543.85        19.44592
544.29        19.56516
544.72        19.60274
545.16        19.67435
545.60        19.77538
546.04        19.83898
546.47        19.88093
546.91        19.96201
547.35        20.08778
547.79        20.24589
548.22        20.41817
548.66        20.57642
549.10        20.71925
549.53         20.9024
549.97        21.10759
550.41        21.25776
550.84        21.34183
551.28        21.40156
551.72        21.44729
552.15        21.48045
552.59        21.52215
553.03        21.56735
553.46        21.62319
553.90          21.728
554.34         21.8724
554.77        22.02338
555.21        22.17411
555.65        22.33091
556.08        22.48184
556.52        22.61806
556.96        22.72548
557.39         22.8058
557.83        22.86712
558.27        22.87807
558.70        22.86539
559.14        22.92718
559.57        23.04693
560.01        23.12343
560.45        23.14736
560.88        23.18611
561.32        23.25087
561.75        23.28317
562.19        23.31373
562.63        23.36658
563.06        23.43701
563.50        23.59153
563.93        23.77596
564.37        23.74271
564.80        23.55912
565.24        23.63565
565.68        23.92686
566.11        24.06466
566.55        24.04305
566.98        24.04238
567.42        24.09035
567.85        24.23498
568.29        24.30602
568.72         24.3964
569.16        24.50174
569.60        24.62013
570.03        24.72424
570.47        24.95897
570.90         25.3268
571.34        25.07167
571.77        25.54744
572.21        25.54404
572.64        25.49927
573.08         25.4747
573.51        25.92862
573.95        25.99446
574.38        25.85655
574.82         25.7314
