SpectraSmart Spectrum 2.9.0.0
--------- Device Information -----------
Spectrum Name :  反射率_0
Saving Time :  2024/05/03 20:49:39
Spectro-Module Model Name : SE2030-DUVN
Spectro-Module Serial Number : OS361AC55029948
Wavelength Start : 200
Wavelength End : 1025
Wavelength Unit : Wavelength(nm)
Spectrum Unit : Reflectance(%)
-----------Spectrum Setting ------------
Integration Time : 20ms
Average : 10
Boxcar : 0
Background removal :  enabled
linearity correction :  enabled
SC :  disabled
Intensity correction :  disabled
DWT denoise :  enabled
savitzky-golay :  disabled
FFT :  disabled
Running average :  disabled
Kalman :  disabled
High pass :  disabled
---------------BEGIN--------------------
Wavelength(nm)             Reflectance(%)
200.29               0
200.75        59.70136
201.21        95.83824
201.67       -2116.653
202.13       -34.70456
202.58        6.068752
203.04        26.54319
203.50        40.13106
203.96        49.01429
204.42        56.39606
204.88        71.71299
205.34       -400.5088
205.80         4.52688
206.26       -2.919015
206.72       -11055.95
207.18        80.69592
207.64        63.85542
208.10        57.20415
208.55        52.26546
209.01       -28.17024
209.47       -252.2739
209.93        -32.2365
210.39       -3.106599
210.85        6.226812
211.31        9.922651
211.77        11.71387
212.23        13.87145
212.69         18.5342
213.14        24.30802
213.60        19.00715
214.06        15.21856
214.52        14.08131
214.98        15.10693
215.44        19.27354
215.90        35.90428
216.36       -214.5387
216.81       -47.60926
217.27       -60.55419
217.73       -128.0259
218.19        -528.286
218.65       -11254.16
219.11       -835.3403
219.57        -222.944
220.02       -130.2489
220.48       -240.4261
220.94         316.348
221.40        111.5568
221.86        82.17999
222.32        76.12012
222.77         79.0614
223.23        90.15955
223.69         109.929
224.15        123.8429
224.61        119.1704
225.06        106.4422
225.52        98.16425
225.98        99.49712
226.44         109.974
226.90        128.1136
227.36        152.0241
227.81        169.9876
228.27        172.1937
228.73        164.1667
229.19        151.0505
229.65        136.7865
230.10        123.1011
230.56        110.9854
231.02        101.5429
231.48        96.40952
231.93        94.93828
232.39        96.27267
232.85        98.86353
233.31        100.8469
233.77        101.6692
234.22        101.5571
234.68        101.2382
235.14        101.9925
235.60        104.0996
236.05        107.4019
236.51        110.0164
236.97        108.8794
237.43        103.5618
237.88         95.6422
238.34         88.1671
238.80        84.42118
239.26         85.1093
239.71        91.70913
240.17        104.5386
240.63        118.9185
241.08        124.2166
241.54        116.5291
242.00        104.1309
242.46        97.17328
242.91        97.12461
243.37        101.9837
243.83        112.2367
244.28        119.8485
244.74        109.5731
245.20        87.56997
245.66        65.68191
246.11        49.50578
246.57         38.8972
247.03        32.04001
247.48        27.34242
247.94         22.5198
248.40         17.1735
248.85        11.08497
249.31        6.689907
249.77        8.750524
250.22        16.46433
250.68        25.84548
251.14        34.49994
251.59        42.06066
252.05        50.24423
252.51        61.49208
252.96        76.97906
253.42        92.07871
253.88        99.34875
254.33        97.73708
254.79        92.64159
255.25        88.76266
255.70        86.56983
256.16        85.97102
256.62        85.82764
257.07        85.54024
257.53        85.59185
257.99        85.53389
258.44        85.37133
258.90        85.78774
259.35        86.14043
259.81        86.87808
260.27        87.12078
260.72        86.04388
261.18        84.45213
261.63        82.39076
262.09        80.96588
262.55        80.73013
263.00        81.39731
263.46        82.67467
263.91        83.75556
264.37        83.97294
264.83        83.14447
265.28        81.63042
265.74        79.88166
266.19        78.04803
266.65        76.43311
267.11        74.85794
267.56        73.48658
268.02        72.72121
268.47        72.48161
268.93        72.71342
269.38          73.004
269.84        72.64384
270.30        71.52378
270.75        69.86087
271.21        68.19612
271.66        67.16046
272.12        66.87599
272.57        67.03033
273.03        67.26791
273.48        67.03139
273.94        66.21901
274.39        65.06087
274.85        63.74479
275.31        62.36273
275.76        60.98239
276.22        59.65656
276.67        58.52946
277.13        58.03119
277.58          58.021
278.04        58.39634
278.49        58.64351
278.95        58.06298
279.40        56.53383
279.86        54.51996
280.31        52.41894
280.77        50.92841
281.22        50.02143
281.68        49.55063
282.13        49.25081
282.59        48.87438
283.04        48.29845
283.50        47.66521
283.95        46.99849
284.41        46.40246
284.86        45.86096
285.32        45.37616
285.77        44.88481
286.22        44.40369
286.68        43.95092
287.13         43.4809
287.59        43.06238
288.04        42.68776
288.50        42.38402
288.95         42.1117
289.41        41.82301
289.86        41.38292
290.32        40.82132
290.77        40.15814
291.22        39.54406
291.68        39.16811
292.13        39.04064
292.59        39.13961
293.04        39.31866
293.50        39.36668
293.95        39.22562
294.40        38.95823
294.86        38.74673
295.31        38.84231
295.77        39.28107
296.22        39.95831
296.68        40.64534
297.13        40.97116
297.58        40.84904
298.04        40.44888
298.49        39.96193
298.95        39.72271
299.40        39.78968
299.85        40.05451
300.31        40.47266
300.76        40.94199
301.21        41.41128
301.67        41.90974
302.12        42.30413
302.58        42.41953
303.03        42.22573
303.48        41.79836
303.94        41.35518
304.39        41.15063
304.84        41.25944
305.30          41.597
305.75        41.99497
306.20        42.22531
306.66        42.24508
307.11        42.11042
307.57        41.93383
308.02        41.79861
308.47        41.75726
308.93        41.77125
309.38        41.80071
309.83        41.84105
310.29        41.87885
310.74        41.90731
311.19        41.90878
311.65        41.84701
312.10        41.70371
312.55        41.48586
313.00        41.21465
313.46        40.92951
313.91        40.63451
314.36        40.34911
314.82        40.07274
315.27         39.7857
315.72        39.50285
316.18        39.23744
316.63        39.03189
317.08        38.95602
317.53         39.0107
317.99        39.15411
318.44        39.32006
318.89        39.38078
319.35        39.29623
319.80        39.09982
320.25        38.82766
320.70         38.5495
321.16        38.28561
321.61        38.02284
322.06        37.76769
322.51        37.53556
322.97        37.32838
323.42        37.16689
323.87        37.01942
324.32        36.83114
324.78        36.58825
325.23         36.3125
325.68        36.05178
326.13        35.89431
326.59        35.84683
327.04         35.9021
327.49        35.98157
327.94        35.96934
328.39        35.82847
328.85        35.57164
329.30        35.28217
329.75        35.06427
330.20         34.9527
330.66        34.91147
331.11         34.8885
331.56        34.75152
332.01        34.47608
332.46        34.10629
332.92         33.7299
333.37        33.53302
333.82        33.54675
334.27        33.72025
334.72        33.95258
335.17        34.07327
335.63         34.0125
336.08        33.82768
336.53        33.57541
336.98        33.37014
337.43        33.24835
337.88        33.17805
338.34        33.10828
338.79        32.96362
339.24        32.73405
339.69         32.4669
340.14        32.22729
340.59        32.11185
341.05        32.14132
341.50        32.27551
341.95        32.46957
342.40        32.65848
342.85        32.80928
343.30         32.9349
343.75         33.0044
344.20        32.97412
344.66        32.85429
345.11        32.65101
345.56        32.44038
346.01         32.3397
346.46          32.376
346.91        32.52069
347.36        32.70833
347.81         32.8299
348.26        32.85629
348.72         32.8202
349.17        32.76132
349.62        32.75318
350.07        32.81074
350.52        32.90067
350.97        32.98357
351.42          33.004
351.87        32.94539
352.32        32.82681
352.77         32.6715
353.22        32.51514
353.67        32.37397
354.13        32.25095
354.58        32.12588
355.03        31.99164
355.48        31.85027
355.93        31.71354
356.38        31.59721
356.83        31.52348
357.28        31.49113
357.73        31.48121
358.18        31.47596
358.63        31.44878
359.08         31.3878
359.53        31.30087
359.98        31.17171
360.43        30.97944
360.88        30.72527
361.33        30.41185
361.78        30.09249
362.23         29.8469
362.68        29.69156
363.13         29.6171
363.58        29.54525
364.03        29.34859
364.48        29.00965
364.93        28.56948
365.38        28.15149
365.83        27.94454
366.28        27.97968
366.73        28.19269
367.18        28.43567
367.63        28.46904
368.08        28.23384
368.53        27.80585
368.98         27.3221
369.43        26.99114
369.88        26.86648
370.33        26.88654
370.78        26.95486
371.23        26.91217
371.68         26.7131
372.13        26.41214
372.58        26.09569
373.03        25.88772
373.48        25.81422
373.93        25.83084
374.38         25.8551
374.83         25.7588
375.28        25.51396
375.72        25.16065
376.17         24.8077
376.62        24.56703
377.07        24.46213
377.52        24.45482
377.97         24.4781
378.42         24.4271
378.87        24.27715
379.32        24.06441
379.77        23.84925
380.22        23.71402
380.67        23.66991
381.11        23.69003
381.56         23.7078
382.01        23.63341
382.46        23.45047
382.91        23.20111
383.36        22.94476
383.81        22.76316
384.26        22.67397
384.71        22.64711
385.15        22.64985
385.60         22.6481
386.05        22.61738
386.50        22.56737
386.95        22.49428
387.40        22.39178
387.85        22.26491
388.29        22.10817
388.74        21.95617
389.19        21.80766
389.64        21.66763
390.09        21.53929
390.54        21.43717
390.98        21.36253
391.43        21.32355
391.88        21.35008
392.33        21.41765
392.78        21.38699
393.23         21.3029
393.67        21.38133
394.12        21.57572
394.57        21.59065
395.02        21.40722
395.47        21.16227
395.91        20.93232
396.36        20.78158
396.81        20.75491
397.26        20.84113
397.71        20.94955
398.15        20.96867
398.60        20.90575
399.05        20.67289
399.50        20.39656
399.95         20.4889
400.39        20.87029
400.84        20.91396
401.29        20.60684
401.74        20.43471
402.18        20.41106
402.63        20.25845
403.08        20.04469
403.53        19.84905
403.97        19.97564
404.42        20.12381
404.87        20.30415
405.32        20.39387
405.76        20.35965
406.21        20.24533
406.66        20.09288
407.11        19.97472
407.55        19.91771
408.00        19.89343
408.45        19.88495
408.90           19.86
409.34        19.80724
409.79        19.74043
410.24        19.67933
410.68        19.64494
411.13        19.64233
411.58        19.66269
412.03        19.67618
412.47        19.63808
412.92        19.53597
413.37        19.39148
413.81        19.24747
414.26        19.18421
414.71        19.20391
415.15        19.29415
415.60        19.39311
416.05        19.41382
416.49        19.33334
416.94         19.1851
417.39        19.02614
417.83        18.93849
418.28        18.93909
418.73        18.99233
419.17        19.06791
419.62        19.10441
420.07        19.08559
420.51        19.03392
420.96        18.95611
421.41        18.84438
421.85        18.70177
422.30        18.54258
422.74        18.40201
423.19        18.38771
423.64        18.49338
424.08         18.6673
424.53        18.83521
424.98        18.94272
425.42        18.96995
425.87        18.87098
426.31        18.71176
426.76        18.71216
427.21        18.84108
427.65        18.81012
428.10        18.65071
428.54        18.60348
428.99        18.68366
429.44        18.86759
429.88        19.02702
430.33        18.85583
430.77        18.44258
431.22        18.21668
431.66         18.2379
432.11        18.38068
432.56        18.58142
433.00        18.79963
433.45        18.84117
433.89        18.69162
434.34        17.81596
434.78         17.7119
435.23        18.23234
435.67         18.3726
436.12        18.14204
436.57        18.10602
437.01        18.27948
437.46        18.36864
437.90        18.35653
438.35        18.32789
438.79        18.29474
439.24        18.26214
439.68        18.24596
440.13        18.28681
440.57        18.34341
441.02        18.32866
441.46        18.22988
441.91        18.07244
442.35        17.89937
442.80        17.89501
443.24        18.00973
443.69        18.02106
444.13        17.92065
444.58        17.88357
445.02        17.90851
445.47        17.88857
445.91        17.83149
446.36        17.81518
446.80        17.83873
447.24         17.8822
447.69         17.9302
448.13        17.95844
448.58        17.96255
449.02        17.94779
449.47        17.92703
449.91        17.90819
450.36        17.89903
450.80        17.89058
451.25        17.88301
451.69        17.86908
452.13        17.84857
452.58         17.8264
453.02        17.79873
453.47        17.76715
453.91        17.73295
454.36        17.69704
454.80        17.66066
455.24        17.65314
455.69         17.6839
456.13        17.68025
456.58        17.63934
457.02        17.76568
457.46         17.7686
457.91         17.7119
458.35        17.54208
458.79        17.48851
459.24        17.53639
459.68        17.47463
460.13        17.34403
460.57         17.2946
461.01        17.34246
461.46        17.40514
461.90        17.45218
462.34        17.45687
462.79        17.40455
463.23        17.30256
463.68        17.19468
464.12        17.13814
464.56        17.14451
465.01        17.24431
465.45        17.36283
465.89         17.3413
466.34        17.21844
466.78        17.18712
467.22        17.26813
467.67        17.33833
468.11        17.38453
468.55        17.40872
468.99        17.41328
469.44         17.4269
469.88        17.45126
470.32        17.45065
470.77        17.42564
471.21        17.40657
471.65        17.39444
472.10        17.37997
472.54        17.36383
472.98        17.35641
473.42        17.35837
473.87         17.3763
474.31        17.38573
474.75        17.36434
475.20        17.31834
475.64        17.24833
476.08        17.18192
476.52        17.18625
476.97        17.27312
477.41        17.37354
477.85        17.43919
478.29        17.72551
478.74        17.62646
479.18        17.75616
479.62        17.91338
480.06        17.97053
480.50        17.91848
480.95        17.84467
481.39        17.78292
481.83        17.75878
482.27         17.7958
482.72        17.91066
483.16        18.05777
483.60        18.16851
484.04        18.24779
484.48        18.20883
484.93        18.13866
485.37        18.39078
485.81        19.00603
486.25        18.90517
486.69        19.23281
487.14        19.16823
487.58        19.03485
488.02        18.81357
488.46        19.20576
488.90        18.94211
489.34        18.61086
489.79         18.6829
490.23        19.19677
490.67        19.51956
491.11        19.56458
491.55        19.47262
491.99        19.32778
492.43        19.32134
492.88        19.48376
493.32        19.68672
493.76        19.87058
494.20        20.01908
494.64        20.11853
495.08        20.17566
495.52        20.21629
495.96        20.29683
496.41        20.42819
496.85        20.55305
497.29        20.67226
497.73        20.86399
498.17        21.08355
498.61        21.18248
499.05        21.16033
499.49        21.09871
499.93        21.05681
500.37        21.13617
500.82        21.31367
501.26        21.42557
501.70        21.45747
502.14        21.52039
502.58        21.62104
503.02        21.71027
503.46        21.78648
503.90        21.86404
504.34        21.93625
504.78        21.99221
505.22        22.03212
505.66        22.05288
506.10          22.058
506.54        22.10428
506.98        22.20628
507.42        22.26235
507.86        22.23445
508.30        22.54557
508.74        22.40201
509.18         22.4458
509.62        22.46245
510.06        22.50739
510.50        22.58149
510.94        22.67924
511.38        22.78072
511.82        22.83077
512.26        22.82122
512.70         22.7722
513.14        22.70814
513.58        22.66749
514.02        22.66166
514.46        22.67592
514.90        22.70842
515.34          22.755
515.78        22.81004
516.22        22.87925
516.66        22.93783
517.10        22.94545
517.54        22.89842
517.98        22.80622
518.42        22.71644
518.86        22.70678
519.30         22.7907
519.74        22.94362
520.18        23.10608
520.62        23.18011
521.06        23.14124
521.50        23.01991
521.93        22.86818
522.37        22.77249
522.81        22.75461
523.25        22.78794
523.69        22.83822
524.13        22.85159
524.57        22.81441
525.01        22.74871
525.45        22.67559
525.89        22.62607
526.32        22.60689
526.76        22.60551
527.20        22.61221
527.64        22.61591
528.08         22.6111
528.52        22.60372
528.96        22.58478
529.40        22.53999
529.83         22.4659
530.27        22.36946
530.71        22.27288
531.15        22.21377
531.59         22.1988
532.03        22.22129
532.46        22.24643
532.90        22.21815
533.34        22.13017
533.78        22.00575
534.22        21.88947
534.66        21.84633
535.09        21.88234
535.53        21.97373
535.97        22.08226
536.41        22.13007
536.85        22.09573
537.28        22.06317
537.72        22.03722
538.16        21.88828
538.60        21.69811
539.04        21.75908
539.47        22.02118
539.91         22.1551
540.35        22.13673
540.79        22.15913
541.22        22.22254
541.66        22.25787
542.10        22.27094
542.54        22.24838
542.97        22.22827
543.41        22.35837
543.85        22.60764
544.29        22.78935
544.72        22.87838
545.16        22.99849
545.60        23.14025
546.04        23.22452
546.47          23.271
546.91        23.35533
547.35        23.48651
547.79        23.65154
548.22        23.82846
548.66        23.98218
549.10          24.113
549.53        24.28868
549.97        24.49772
550.41        24.66593
550.84        24.78265
551.28        24.89021
551.72        24.98656
552.15        25.05135
552.59         25.1034
553.03        25.14286
553.46         25.1863
553.90         25.2921
554.34        25.45249
554.77        25.62256
555.21        25.79238
555.65        25.96641
556.08        26.12976
556.52        26.27647
556.96        26.38515
557.39        26.44869
557.83        26.47731
558.27        26.43833
558.70        26.37948
559.14        26.44069
559.57        26.60707
560.01        26.75243
560.45        26.84391
560.88        26.92702
561.32        27.00765
561.75        27.02708
562.19        27.03688
562.63        27.09061
563.06        27.18884
563.50        27.39994
563.93        27.64816
564.37        27.62529
564.80        27.40453
565.24        27.47246
565.68         27.7867
566.11        27.93147
566.55        27.90369
566.98         27.9201
567.42        28.00583
567.85        28.17854
568.29         28.2545
568.72        28.40298
569.16        28.58705
569.60        28.77315
570.03        28.94168
570.47        29.15019
570.90        29.39261
571.34        29.40779
571.77        29.85921
572.21         29.7794
572.64        29.94447
573.08        29.87318
573.51        30.27048
573.95        30.35387
574.38        30.32464
574.82        30.24182
