SpectraSmart Spectrum 2.9.0.0
--------- Device Information -----------
Spectrum Name :  反射率_0
Saving Time :  2024/05/03 20:46:48
Spectro-Module Model Name : SE2030-DUVN
Spectro-Module Serial Number : OS361AC55029948
Wavelength Start : 200
Wavelength End : 1025
Wavelength Unit : Wavelength(nm)
Spectrum Unit : Reflectance(%)
-----------Spectrum Setting ------------
Integration Time : 20ms
Average : 10
Boxcar : 0
Background removal :  enabled
linearity correction :  enabled
SC :  disabled
Intensity correction :  disabled
DWT denoise :  enabled
savitzky-golay :  disabled
FFT :  disabled
Running average :  disabled
Kalman :  disabled
High pass :  disabled
---------------BEGIN--------------------
Wavelength(nm)             Reflectance(%)
200.29               0
200.75       -102.2378
201.21       -169.2909
201.67        4373.943
202.13        140.1425
202.58        85.64587
203.04        73.82878
203.50        75.48522
203.96        88.50779
204.42        121.6442
204.88        248.9264
205.34       -4346.746
205.80       -395.4553
206.26       -430.5298
206.72       -95971.18
207.18        322.5269
207.64        209.3037
208.10        226.9442
208.55        400.1831
209.01        2190.794
209.47         2961.36
209.93        458.7446
210.39        209.0724
210.85        143.5739
211.31        127.2145
211.77        133.2908
212.23        167.1321
212.69        263.8466
213.14        333.0038
213.60        205.9621
214.06        122.7676
214.52        93.18227
214.98         92.2672
215.44        117.8814
215.90        235.9653
216.36       -1459.728
216.81       -274.3808
217.27       -268.6415
217.73       -448.3895
218.19       -1599.339
218.65       -32788.96
219.11       -2527.934
219.57       -744.1192
220.02       -479.2593
220.48       -825.6411
220.94        893.6558
221.40        258.7644
221.86        165.6101
222.32        142.9782
222.77        145.4816
223.23        167.4452
223.69        209.1012
224.15        238.6258
224.61        228.0239
225.06        200.1618
225.52        181.2793
225.98        181.7114
226.44        200.0281
226.90        232.9692
227.36        275.8723
227.81        305.3741
228.27        304.0782
228.73         283.885
229.19         256.915
229.65        232.1377
230.10        211.3197
230.56        194.4527
231.02        181.3524
231.48        172.7097
231.93        167.6711
232.39        165.9347
232.85        166.2296
233.31        167.3596
233.77        168.7035
234.22        169.9501
234.68        171.3045
235.14        173.2191
235.60        175.6453
236.05        178.8941
236.51        180.4581
236.97        176.6835
237.43         167.568
237.88        155.0233
238.34        143.8856
238.80        139.8107
239.26        144.3829
239.71         159.151
240.17        189.3065
240.63        220.6712
241.08        231.2113
241.54        212.2988
242.00        183.0981
242.46        166.5382
242.91        165.5777
243.37        176.5369
243.83        203.3331
244.28        235.6279
244.74         240.389
245.20        221.5678
245.66        191.2574
246.11        158.4769
246.57        128.2945
247.03        99.46327
247.48        77.28324
247.94        66.32349
248.40        65.05394
248.85        70.92461
249.31        81.18404
249.77        88.00126
250.22        88.75786
250.68        87.29687
251.14        86.98752
251.59        91.86744
252.05        103.9489
252.51        124.8384
252.96        157.1673
253.42        191.1737
253.88        209.2954
254.33        208.8448
254.79        195.4235
255.25        176.3833
255.70        158.7178
256.16        146.0183
256.62        138.0754
257.07        134.7304
257.53        135.1773
257.99        136.9856
258.44        138.7897
258.90        140.1556
259.35        140.0373
259.81        139.8782
260.27        138.7937
260.72        135.9464
261.18        132.6757
261.63        128.8557
262.09        126.1035
262.55        125.1352
263.00        125.4869
263.46        126.7571
263.91        127.8252
264.37        127.8307
264.83        126.5047
265.28        124.3298
265.74        121.8093
266.19        118.9364
266.65        116.1525
267.11        113.2531
267.56        110.6874
268.02         109.346
268.47         109.134
268.93        109.8808
269.38        110.7131
269.84        110.1452
270.30        107.9527
270.75        104.6579
271.21        101.3757
271.66        99.48125
272.12        99.23001
272.57        99.97502
273.03        101.0176
273.48         101.229
273.94        100.3298
274.39        98.74596
274.85         96.7258
275.31        94.36608
275.76        91.83609
276.22        89.28282
276.67        87.07713
277.13        86.06976
277.58        86.07647
278.04        86.86656
278.49        87.61375
278.95        87.14495
279.40         85.1986
279.86        82.47133
280.31        79.50218
280.77        77.26705
281.22        75.75012
281.68        74.77965
282.13         74.0391
282.59        73.29613
283.04        72.39168
283.50        71.47964
283.95        70.58586
284.41        69.86365
284.86        69.25274
285.32        68.76098
285.77        68.16688
286.22        67.29443
286.68        66.17476
287.13        64.82958
287.59        63.58039
288.04        62.72874
288.50        62.36506
288.95        62.32747
289.41        62.36541
289.86        61.99741
290.32        61.19017
290.77        60.06219
291.22        58.93993
291.68        58.25499
292.13        58.05192
292.59        58.22458
293.04        58.51649
293.50        58.55096
293.95        58.23368
294.40        57.71559
294.86        57.25865
295.31        57.20145
295.77        57.61125
296.22        58.32873
296.68        59.13427
297.13        59.68135
297.58        59.84739
298.04        59.79016
298.49        59.57421
298.95        59.37213
299.40        59.22289
299.85        59.10145
300.31        59.11309
300.76         59.3785
301.21        59.90978
301.67        60.66502
302.12        61.43319
302.58        61.93118
303.03        62.06261
303.48        61.93631
303.94        61.74842
304.39        61.69144
304.84        61.85293
305.30        62.15041
305.75        62.47377
306.20        62.71573
306.66        62.86073
307.11        62.91991
307.57         62.9381
308.02         62.8524
308.47        62.70994
308.93        62.53338
309.38        62.36145
309.83        62.33104
310.29        62.46136
310.74        62.69209
311.19        62.94535
311.65        63.08707
312.10         63.0578
312.55        62.88863
313.00        62.62217
313.46        62.33351
313.91        62.03308
314.36        61.73627
314.82        61.43253
315.27        61.08616
315.72        60.71665
316.18        60.34739
316.63        60.05573
317.08        59.96647
317.53        60.08803
317.99        60.36007
318.44        60.66342
318.89        60.76781
319.35        60.61061
319.80        60.25625
320.25        59.80689
320.70        59.44321
321.16        59.20679
321.61        59.05051
322.06        58.92115
322.51        58.73789
322.97        58.47114
323.42        58.17815
323.87        57.85764
324.32        57.50585
324.78        57.12783
325.23        56.73995
325.68        56.38434
326.13        56.14605
326.59        56.02297
327.04        56.01877
327.49        56.05634
327.94         56.0242
328.39        55.88293
328.85        55.63822
329.30        55.35397
329.75        55.07431
330.20        54.82565
330.66        54.57936
331.11        54.36128
331.56        54.14658
332.01        53.93712
332.46        53.75106
332.92        53.58105
333.37          53.473
333.82        53.41032
334.27        53.38015
334.72        53.37868
335.17        53.40406
335.63        53.42803
336.08        53.46801
336.53        53.47404
336.98        53.39478
337.43        53.22177
337.88        52.97535
338.34        52.69148
338.79        52.43962
339.24        52.24637
339.69        52.11187
340.14        52.03166
340.59        51.99346
341.05        51.98511
341.50        52.00313
341.95        52.05113
342.40        52.14162
342.85        52.26151
343.30        52.39533
343.75        52.47388
344.20        52.39378
344.66        52.15928
345.11        51.80943
345.56        51.45323
346.01        51.25232
346.46        51.24792
346.91        51.38839
347.36        51.61338
347.81        51.82562
348.26        51.97963
348.72        52.09384
349.17         52.1495
349.62        52.13067
350.07        52.04282
350.52        51.89525
350.97        51.70383
351.42        51.50409
351.87        51.31008
352.32        51.10711
352.77        50.93687
353.22        50.85937
353.67        50.87444
354.13         50.9813
354.58        51.04726
355.03        50.90004
355.48        50.52315
355.93        49.98242
356.38        49.44096
356.83         49.1587
357.28        49.18322
357.73        49.41509
358.18         49.7075
358.63        49.82105
359.08        49.68086
359.53        49.36546
359.98        48.92551
360.43        48.44407
360.88        47.96485
361.33         47.4599
361.78        46.98449
362.23        46.62415
362.68         46.3915
363.13        46.28462
363.58        46.20655
364.03        45.99196
364.48        45.61124
364.93        45.10673
365.38        44.61333
365.83        44.34304
366.28        44.32978
366.73        44.49898
367.18        44.68674
367.63        44.63056
368.08        44.27003
368.53        43.69503
368.98        43.06244
369.43        42.60676
369.88        42.38876
370.33        42.34029
370.78        42.35771
371.23        42.26991
371.68        42.02588
372.13        41.68153
372.58        41.32148
373.03        41.06686
373.48        40.93942
373.93         40.8896
374.38        40.83135
374.83        40.63496
375.28        40.27583
375.72        39.79629
376.17        39.31693
376.62        38.94468
377.07        38.70357
377.52        38.55456
377.97        38.44646
378.42        38.30216
378.87        38.10044
379.32        37.86832
379.77        37.63525
380.22        37.43508
380.67        37.27155
381.11        37.13768
381.56        36.99081
382.01        36.79924
382.46        36.56284
382.91        36.29884
383.36        36.05271
383.81        35.88421
384.26        35.79913
384.71        35.77925
385.15        35.76111
385.60        35.66515
386.05        35.46623
386.50        35.18697
386.95        34.89728
387.40         34.7019
387.85        34.62174
388.29        34.61227
388.74        34.62329
389.19        34.50466
389.64        34.23409
390.09        33.85102
390.54        33.47755
390.98        33.27584
391.43        33.29105
391.88        33.51907
392.33        33.80082
392.78        33.74099
393.23        33.39687
393.67        33.18372
394.12        33.15887
394.57        33.06394
395.02        32.90939
395.47        32.83771
395.91        32.84411
396.36        32.82169
396.81        32.77609
397.26        32.75317
397.71        32.70829
398.15        32.61287
398.60        32.51237
399.05        32.22224
399.50        31.87556
399.95        32.02987
400.39        32.54381
400.84         32.4738
401.29        31.86531
401.74        31.56876
402.18        31.62673
402.63        31.56974
403.08        31.43858
403.53        31.25445
403.97        31.46595
404.42        31.63497
404.87        31.80856
405.32        31.84367
405.76        31.70945
406.21        31.45886
406.66        31.16943
407.11        30.97321
407.55        30.91321
408.00        30.94887
408.45        31.02111
408.90        31.01659
409.34        30.90137
409.79        30.70981
410.24        30.52224
410.68        30.44775
411.13         30.5068
411.58        30.66406
412.03        30.81402
412.47        30.78234
412.92        30.52685
413.37        30.12335
413.81        29.71214
414.26         29.5179
414.71        29.56485
415.15        29.80738
415.60        30.10159
416.05        30.22579
416.49        30.11303
416.94         29.8398
417.39        29.53816
417.83        29.39911
418.28        29.46412
418.73        29.65812
419.17        29.89026
419.62        29.99187
420.07        29.92048
420.51        29.73357
420.96        29.50032
421.41        29.29335
421.85        29.12871
422.30        28.99632
422.74        28.88949
423.19        28.88348
423.64         28.9559
424.08         29.0597
424.53        29.13591
424.98        29.20179
425.42        29.25336
425.87        29.17029
426.31        29.03448
426.76        29.15362
427.21        29.47507
427.65         29.5741
428.10        29.41843
428.54        29.33634
428.99        29.35958
429.44        29.25406
429.88         29.0325
430.33         29.0069
430.77        29.10158
431.22         28.9098
431.66        28.52139
432.11        28.61899
432.56        29.14315
433.00        29.25755
433.45        28.80187
433.89         28.8615
434.34        28.34181
434.78        28.40528
435.23         28.6058
435.67        28.61374
436.12        28.41922
436.57        28.37957
437.01        28.50668
437.46        28.53436
437.90        28.45479
438.35        28.39349
438.79         28.3434
439.24        28.23861
439.68        28.09667
440.13        28.01682
440.57        28.00029
441.02        27.98783
441.46        27.96505
441.91        27.98463
442.35        28.01495
442.80        28.08589
443.24        28.16555
443.69        28.23661
444.13        28.26809
444.58        28.24905
445.02        28.17519
445.47        28.04531
445.91        27.90776
446.36        27.86475
446.80        27.92176
447.24        28.05552
447.69        28.20479
448.13        28.26732
448.58        28.22453
449.02        28.10506
449.47        27.96519
449.91        27.87408
450.36        27.85853
450.80        27.88263
451.25        27.92796
451.69        27.95423
452.13        27.94892
452.58        27.92689
453.02        27.88091
453.47        27.81078
453.91        27.71972
454.36        27.61069
454.80        27.49309
455.24        27.42502
455.69        27.42862
456.13        27.40306
456.58        27.34218
457.02        27.54083
457.46        27.55437
457.91          27.517
458.35        27.33955
458.79         27.3396
459.24        27.48525
459.68        27.46202
460.13        27.31233
460.57        27.23677
461.01        27.25806
461.46         27.2629
461.90        27.22579
462.34        27.14487
462.79        27.01212
463.23        26.83224
463.68        26.67047
464.12        26.60942
464.56        26.65826
465.01        26.86278
465.45          27.095
465.89        27.09272
466.34        26.91169
466.78        26.85431
467.22         26.9557
467.67        27.03011
468.11        27.06424
468.55         27.0649
468.99        27.03745
469.44        27.02742
469.88        27.03871
470.32         27.0143
470.77        26.96863
471.21        26.96931
471.65        27.01698
472.10        27.09023
472.54        27.15294
472.98        27.16336
473.42        27.11582
473.87        27.04051
474.31        26.94994
474.75        26.88785
475.20        26.87629
475.64        26.88824
476.08        26.92416
476.52        27.00836
476.97        27.13796
477.41          27.259
477.85         27.3249
478.29        27.62545
478.74        27.47976
479.18        27.63213
479.62        27.84517
480.06        27.91916
480.50        27.83868
480.95        27.73796
481.39        27.65264
481.83        27.59642
482.27         27.6014
482.72        27.70397
483.16        27.84931
483.60        27.95048
484.04        28.00916
484.48        27.91466
484.93        27.82636
485.37        28.13608
485.81        28.90394
486.25        28.96961
486.69        29.88924
487.14        29.48636
487.58        28.71936
488.02        28.95675
488.46        29.08263
488.90        28.57133
489.34        28.88858
489.79        28.91202
490.23        29.19572
490.67        29.60109
491.11        30.02357
491.55        29.99469
491.99        29.61137
492.43        29.54603
492.88        29.84833
493.32        30.15866
493.76          30.397
494.20        30.60371
494.64        30.75659
495.08         30.8772
495.52        30.98026
495.96        31.03829
496.41        31.08987
496.85        31.22733
497.29          31.439
497.73        31.65555
498.17        31.82713
498.61        31.90813
499.05        31.91097
499.49        31.85282
499.93        31.81237
500.37        31.98614
500.82        32.30807
501.26        32.46701
501.70        32.43255
502.14        32.38749
502.58        32.38304
503.02        32.41693
503.46         32.5064
503.90        32.65393
504.34        32.82219
504.78        32.94875
505.22        33.01745
505.66         33.0352
506.10        33.02602
506.54        33.09925
506.98        33.28017
507.42        33.41313
507.86        33.41862
508.30        33.85028
508.74         33.5898
509.18        33.55276
509.62        33.47057
510.06        33.46933
510.50        33.56352
510.94        33.73208
511.38         33.9244
511.82        34.02518
512.26        34.01121
512.70        33.92209
513.14        33.80548
513.58        33.73613
514.02        33.73459
514.46        33.76998
514.90        33.83022
515.34        33.89617
515.78        33.95665
516.22        34.02704
516.66        34.07745
517.10        34.05735
517.54        33.96574
517.98         33.8152
518.42        33.67717
518.86        33.66806
519.30        33.80651
519.74        34.05455
520.18        34.31992
520.62        34.45059
521.06        34.40662
521.50        34.23238
521.93        34.00373
522.37        33.84959
522.81        33.80311
523.25        33.82672
523.69        33.87225
524.13        33.86369
524.57        33.78383
525.01        33.66686
525.45        33.54785
525.89        33.47747
526.32        33.46598
526.76        33.49329
527.20        33.53989
527.64        33.58102
528.08        33.60575
528.52        33.62397
528.96         33.6231
529.40        33.58449
529.83        33.50232
530.27        33.38301
530.71        33.25949
531.15        33.18924
531.59        33.18097
532.03         33.2245
532.46        33.26194
532.90        33.19951
533.34        33.02982
533.78        32.79647
534.22        32.57729
534.66        32.48485
535.09        32.53214
535.53        32.67799
535.97        32.86501
536.41        32.97623
536.85        32.97372
537.28         32.9795
537.72         32.9846
538.16        32.77065
538.60        32.45716
539.04        32.49153
539.47        32.81321
539.91        32.95661
540.35        32.89395
540.79        32.90445
541.22        32.98771
541.66        33.03871
542.10        33.06257
542.54        33.04163
542.97        33.01864
543.41        33.18994
543.85        33.50714
544.29        33.69965
544.72        33.75409
545.16        33.88918
545.60        34.09734
546.04         34.2501
546.47         34.3535
546.91        34.48262
547.35        34.64125
547.79        34.82278
548.22        35.01053
548.66        35.17617
549.10        35.32538
549.53        35.54734
549.97        35.81881
550.41        36.02282
550.84        36.14185
551.28        36.24469
551.72        36.32612
552.15        36.35137
552.59        36.34967
553.03        36.32355
553.46        36.31227
553.90        36.42231
554.34         36.6454
554.77        36.91019
555.21         37.1809
555.65        37.42961
556.08        37.62624
556.52        37.76974
556.96        37.85316
557.39        37.90231
557.83        37.93951
558.27        37.90977
558.70        37.85343
559.14        37.92736
559.57        38.10265
560.01        38.21336
560.45        38.25258
560.88        38.34402
561.32        38.50238
561.75        38.62073
562.19        38.72548
562.63        38.82127
563.06        38.89476
563.50         39.0702
563.93        39.27701
564.37        39.14265
564.80        38.78913
565.24        38.87754
565.68        39.33438
566.11        39.55719
566.55        39.52962
566.98        39.55915
567.42        39.66884
567.85         39.8677
568.29        39.89521
568.72        39.98866
569.16         40.1023
569.60        40.26038
570.03        40.45993
570.47        40.65762
570.90        40.81227
571.34        41.04952
571.77        41.52067
572.21        41.27962
572.64        41.55004
573.08        41.44537
573.51        42.12447
573.95        42.12745
574.38        41.90802
574.82        41.59872
