SpectraSmart Spectrum 2.9.0.0
--------- Device Information -----------
Spectrum Name :  反射率_0
Saving Time :  2024/05/03 21:02:30
Spectro-Module Model Name : SE2030-DUVN
Spectro-Module Serial Number : OS361AC55029948
Wavelength Start : 200
Wavelength End : 1025
Wavelength Unit : Wavelength(nm)
Spectrum Unit : Reflectance(%)
-----------Spectrum Setting ------------
Integration Time : 20ms
Average : 10
Boxcar : 0
Background removal :  enabled
linearity correction :  enabled
SC :  disabled
Intensity correction :  disabled
DWT denoise :  enabled
savitzky-golay :  disabled
FFT :  disabled
Running average :  disabled
Kalman :  disabled
High pass :  disabled
---------------BEGIN--------------------
Wavelength(nm)             Reflectance(%)
200.29               0
200.75        21.37438
201.21        14.79858
201.67        383.9639
202.13        33.18618
202.58        23.74232
203.04        18.31161
203.50        14.61391
203.96        12.77557
204.42        12.67007
204.88        15.12406
205.34        -111.425
205.80       -8.190198
206.26       -22.18357
206.72       -11428.07
207.18        63.69624
207.64        50.67752
208.10        55.25344
208.55        84.81147
209.01        391.5623
209.47        610.2788
209.93        131.2846
210.39        79.32545
210.85        64.85061
211.31        60.87895
211.77        61.35993
212.23        66.93928
212.69        79.28419
213.14        68.61554
213.60        32.93371
214.06        20.97493
214.52        19.23397
214.98        21.08678
215.44        27.26209
215.90        51.57081
216.36       -318.4298
216.81       -73.93923
217.27       -96.01663
217.73       -202.5548
218.19       -815.3654
218.65        -16369.7
219.11        -1082.07
219.57       -228.4733
220.02       -87.19563
220.48       -128.7558
220.94        212.1881
221.40        95.27018
221.86        79.83651
222.32        75.43732
222.77        74.17465
223.23        75.44223
223.69        79.47901
224.15        84.23754
224.61        86.65065
225.06        86.75245
225.52        87.88383
225.98        92.32909
226.44        100.7188
226.90        112.7141
227.36        127.1558
227.81        136.9084
228.27        136.2548
228.73        129.1715
229.19        118.7333
229.65        107.0388
230.10        95.45834
230.56        85.20357
231.02         77.5622
231.48         74.2323
231.93         74.5411
232.39        77.43778
232.85        81.23717
233.31        83.81455
233.77        84.63206
234.22         84.1167
234.68        83.18822
235.14        83.43009
235.60         85.3034
236.05        88.58811
236.51        91.69704
236.97        91.92234
237.43        88.66177
237.88        83.12401
238.34        77.86188
238.80        75.77796
239.26        77.66749
239.71        85.45006
240.17        98.75863
240.63        111.5038
241.08        111.6599
241.54        96.67894
242.00        78.36223
242.46        68.15383
242.91        66.57211
243.37        72.09648
243.83        85.29189
244.28        94.38578
244.74        80.10285
245.20        50.67157
245.66        22.45388
246.11        4.339563
246.57       -4.664329
247.03       -8.146595
247.48        -7.48456
247.94       -3.976859
248.40        1.891984
248.85          10.043
249.31        19.74711
249.77        26.46877
250.22        28.40074
250.68        27.60488
251.14        26.64557
251.59         28.2674
252.05        33.67654
252.51        43.80306
252.96        60.49743
253.42        80.37118
253.88         94.4136
254.33        99.58625
254.79        96.90311
255.25        89.27925
255.70         81.0075
256.16        74.63274
256.62        70.62749
257.07        69.30378
257.53        70.19592
257.99        71.84872
258.44        73.41488
258.90         74.5659
259.35        74.68278
259.81        74.64843
260.27        73.96744
260.72        72.16702
261.18        70.04985
261.63        67.66251
262.09        65.93076
262.55        65.33613
263.00        65.63047
263.46        66.53057
263.91        67.42996
264.37        67.84798
264.83        67.58543
265.28        66.86261
265.74         65.8732
266.19        64.51777
266.65        63.03733
267.11        61.37444
267.56        59.82137
268.02         58.9305
268.47        58.68068
268.93        58.95938
269.38        59.33836
269.84         59.0769
270.30        58.05178
270.75         56.5158
271.21         54.9808
271.66        54.05104
272.12        53.84297
272.57        54.05106
273.03        54.36605
273.48        54.31613
273.94        53.78811
274.39        52.97072
274.85        51.95718
275.31        50.73483
275.76        49.37033
276.22        47.95806
276.67        46.72117
277.13        46.13781
277.58        46.11979
278.04        46.55725
278.49        46.96084
278.95        46.64145
279.40        45.46302
279.86        43.82388
280.31        42.12785
280.77        41.05311
281.22        40.57442
281.68        40.51924
282.13        40.54884
282.59        40.27892
283.04        39.59517
283.50         38.6987
283.95        37.75404
284.41        37.04657
284.86        36.60646
285.32         36.3643
285.77         36.1854
286.22        35.95703
286.68        35.65616
287.13        35.29123
287.59        34.93684
288.04        34.61406
288.50        34.35516
288.95        34.10573
289.41        33.84743
289.86        33.50554
290.32        33.10808
290.77        32.66946
291.22        32.26421
291.68        31.97386
292.13        31.80042
292.59        31.74816
293.04        31.77333
293.50        31.82727
293.95          31.887
294.40        31.96974
294.86        32.12498
295.31        32.41438
295.77        32.84309
296.22        33.36718
296.68        33.90472
297.13        34.32578
297.58        34.58294
298.04        34.73514
298.49        34.81259
298.95        34.91022
299.40        35.04348
299.85        35.20066
300.31        35.42809
300.76        35.76252
301.21         36.2105
301.67          36.763
302.12        37.31152
302.58        37.71154
303.03        37.91544
303.48        37.97371
303.94        38.01859
304.39        38.18781
304.84        38.52808
305.30         38.9786
305.75        39.41967
306.20        39.70457
306.66        39.81123
307.11        39.77364
307.57        39.67716
308.02        39.56954
308.47        39.50001
308.93        39.45494
309.38        39.42478
309.83        39.44157
310.29        39.50306
310.74        39.59333
311.19         39.6782
311.65        39.69417
312.10         39.6151
312.55        39.45557
313.00        39.24608
313.46        39.04139
313.91        38.84691
314.36         38.6689
314.82         38.4963
315.27        38.29651
315.72        38.07734
316.18         37.8551
316.63        37.67006
317.08        37.58762
317.53        37.61364
317.99        37.71516
318.44        37.83728
318.89        37.87133
319.35        37.78438
319.80        37.60297
320.25        37.36889
320.70         37.1591
321.16        36.98792
321.61        36.83598
322.06        36.67511
322.51        36.46474
322.97        36.19526
323.42        35.90252
323.87        35.59841
324.32        35.30011
324.78        35.01624
325.23        34.75378
325.68        34.52935
326.13        34.37632
326.59        34.28528
327.04        34.26247
327.49        34.26202
327.94        34.21957
328.39        34.11222
328.85        33.94152
329.30        33.74344
329.75        33.54673
330.20        33.36871
330.66        33.19288
331.11        33.03647
331.56        32.88395
332.01        32.73517
332.46        32.59808
332.92        32.47073
333.37        32.38617
333.82        32.33368
334.27        32.30659
334.72        32.28882
335.17        32.25545
335.63        32.18755
336.08        32.10534
336.53        32.00898
336.98        31.91764
337.43        31.83458
337.88        31.75145
338.34        31.65884
338.79         31.5453
339.24        31.41208
339.69        31.27984
340.14        31.15045
340.59        31.02577
341.05        30.91021
341.50        30.79788
341.95        30.72871
342.40        30.77005
342.85        30.92323
343.30        31.16674
343.75        31.39153
344.20        31.42513
344.66        31.24429
345.11        30.89382
345.56        30.51974
346.01        30.34764
346.46        30.42615
346.91        30.68577
347.36        30.99519
347.81        31.14478
348.26        31.08507
348.72        30.89031
349.17        30.65731
349.62        30.54663
350.07        30.59844
350.52        30.74855
350.97        30.92971
351.42        31.04411
351.87         31.0555
352.32        30.99305
352.77        30.87423
353.22        30.72454
353.67        30.56134
354.13        30.38951
354.58        30.20179
355.03        30.01308
355.48        29.83466
355.93        29.67739
356.38        29.55989
356.83        29.50514
357.28          29.511
357.73        29.55933
358.18        29.62305
358.63        29.66024
359.08        29.65126
359.53        29.60001
359.98        29.49882
360.43        29.34168
360.88        29.13398
361.33        28.87978
361.78        28.60839
362.23        28.36447
362.68        28.15967
363.13        27.98815
363.58        27.82673
364.03        27.63508
364.48        27.40789
364.93        27.16404
365.38        26.93092
365.83        26.74565
366.28          26.617
366.73        26.53171
367.18        26.46923
367.63         26.4011
368.08         26.3143
368.53        26.20816
368.98        26.09537
369.43         25.9945
369.88        25.90555
370.33        25.82433
370.78        25.71626
371.23        25.52792
371.68        25.26072
372.13        24.94369
372.58        24.64833
373.03        24.47822
373.48        24.45153
373.93        24.53353
374.38        24.65805
374.83        24.71309
375.28        24.65887
375.72        24.51231
376.17        24.32773
376.62        24.14831
377.07        23.98817
377.52        23.83073
377.97        23.66601
378.42        23.48487
378.87        23.29467
379.32        23.11455
379.77        22.96007
380.22        22.84391
380.67        22.76414
381.11         22.7143
381.56        22.67761
382.01         22.6456
382.46        22.61076
382.91        22.57372
383.36         22.5203
383.81        22.42958
384.26        22.30076
384.71        22.14153
385.15        21.97314
385.60        21.84976
386.05        21.77661
386.50        21.73677
386.95        21.71189
387.40        21.67099
387.85        21.60725
388.29        21.52702
388.74         21.4465
389.19        21.33834
389.64        21.20288
390.09        21.03968
390.54        20.89528
390.98        20.82597
391.43        20.84623
391.88        20.97063
392.33        21.11758
392.78        21.06435
393.23        20.85255
393.67        20.73053
394.12        20.72605
394.57        20.66503
395.02        20.55042
395.47        20.47579
395.91        20.44514
396.36        20.40074
396.81        20.35169
397.26        20.32702
397.71        20.29259
398.15        20.22032
398.60        20.13856
399.05        19.93555
399.50        19.70673
399.95        19.81606
400.39        20.17714
400.84        20.19534
401.29        19.87479
401.74        19.70779
402.18         19.7117
402.63        19.60853
403.08        19.43949
403.53        19.24566
403.97        19.31551
404.42        19.37043
404.87        19.44898
405.32        19.47602
405.76        19.43014
406.21        19.34104
406.66        19.22706
407.11        19.12255
407.55        19.04513
408.00        18.98014
408.45        18.92779
408.90        18.88574
409.34        18.85137
409.79         18.8245
410.24         18.8134
410.68         18.8252
411.13        18.85942
411.58        18.91195
412.03        18.94792
412.47        18.91288
412.92        18.79436
413.37        18.61719
413.81        18.43771
414.26        18.35419
414.71        18.37331
415.15        18.47953
415.60        18.60265
416.05        18.63764
416.49        18.55527
416.94         18.3927
417.39        18.21775
417.83        18.12818
418.28        18.14393
418.73        18.22575
419.17        18.32689
419.62        18.36002
420.07        18.30324
420.51        18.18596
420.96        18.04162
421.41        17.90234
421.85        17.77612
422.30        17.66411
422.74        17.56734
423.19        17.54002
423.64        17.56905
424.08        17.62206
424.53        17.66441
424.98         17.7087
425.42        17.75492
425.87        17.73929
426.31        17.69223
426.76        17.77181
427.21        17.93313
427.65        17.91834
428.10         17.7628
428.54        17.70577
428.99        17.76943
429.44        17.92541
429.88        18.06635
430.33        17.92555
430.77        17.58389
431.22        17.44016
431.66        17.53046
432.11        17.68864
432.56        17.83953
433.00        17.97909
433.45        17.93651
433.89        17.67142
434.34        16.73191
434.78        16.64721
435.23        17.24528
435.67        17.42626
436.12        17.17916
436.57        17.11637
437.01        17.26848
437.46        17.35177
437.90         17.3539
438.35        17.35658
438.79        17.34094
439.24        17.26617
439.68         17.1456
440.13        17.03691
440.57        16.95514
441.02        16.90208
441.46        16.87916
441.91        16.88908
442.35        16.91294
442.80        17.00825
443.24        17.13152
443.69        17.18427
444.13        17.15104
444.58        17.10773
445.02        17.05801
445.47        16.95531
445.91        16.83423
446.36        16.78773
446.80        16.82201
447.24        16.91113
447.69        17.02384
448.13        17.10644
448.58        17.14269
449.02         17.1463
449.47        17.12253
449.91        17.06908
450.36        16.99835
450.80        16.90722
451.25        16.82346
451.69        16.78538
452.13        16.80052
452.58        16.85783
453.02        16.92762
453.47        16.96848
453.91        16.96746
454.36        16.93728
454.80        16.88482
455.24        16.84795
455.69        16.84363
456.13        16.80141
456.58        16.72917
457.02        16.83771
457.46        16.85325
457.91        16.82968
458.35        16.70729
458.79        16.68938
459.24        16.75616
459.68        16.70988
460.13        16.58364
460.57        16.51248
461.01        16.51413
461.46        16.51411
461.90        16.50129
462.34        16.47898
462.79         16.4406
463.23        16.38581
463.68        16.34156
464.12        16.33575
464.56         16.3701
465.01        16.48003
465.45        16.59995
465.89        16.58768
466.34        16.48234
466.78        16.46285
467.22        16.54838
467.67        16.62022
468.11        16.66533
468.55        16.68944
468.99        16.69096
469.44        16.69004
469.88        16.68895
470.32         16.6562
470.77        16.60764
471.21        16.59607
471.65        16.62666
472.10        16.68356
472.54        16.74508
472.98        16.78633
473.42        16.80042
473.87        16.80279
474.31         16.7913
474.75          16.779
475.20        16.77657
475.64        16.76916
476.08         16.7624
476.52        16.78965
476.97        16.85605
477.41        16.90953
477.85          16.915
478.29         17.1381
478.74        17.00304
479.18        17.09914
479.62        17.24223
480.06        17.32557
480.50         17.3376
480.95         17.3539
481.39        17.38209
481.83         17.4099
482.27        17.45075
482.72        17.52902
483.16        17.62077
483.60        17.68582
484.04        17.72363
484.48        17.69807
484.93        17.69908
485.37         17.9099
485.81         18.3074
486.25        18.57817
486.69        18.64338
487.14        18.64142
487.58         18.4731
488.02        18.75513
488.46        18.89323
488.90         18.8389
489.34        18.53265
489.79        18.47441
490.23        18.71582
490.67        19.10183
491.11        19.49912
491.55        19.51459
491.99        19.22174
492.43        19.18973
492.88        19.45116
493.32        19.64484
493.76        19.73019
494.20        19.83916
494.64        19.96927
495.08        20.08296
495.52        20.18215
495.96        20.28558
496.41        20.39437
496.85        20.47254
497.29        20.53715
497.73        20.68542
498.17        20.88183
498.61         20.9732
499.05        20.96221
499.49        20.93416
499.93        20.94375
500.37        21.08951
500.82        21.33252
501.26        21.48143
501.70        21.51621
502.14        21.55681
502.58        21.62509
503.02        21.69756
503.46        21.78057
503.90        21.88006
504.34        21.98604
504.78         22.0815
505.22        22.16072
505.66        22.22112
506.10        22.25603
506.54        22.30624
506.98        22.38439
507.42        22.39302
507.86        22.30645
508.30        22.57029
508.74        22.39608
509.18        22.42089
509.62        22.42781
510.06        22.46632
510.50        22.53572
510.94         22.6374
511.38        22.74337
511.82        22.78456
512.26        22.75158
512.70        22.66434
513.14        22.57184
513.58        22.55241
514.02        22.62136
514.46        22.75125
514.90        22.89604
515.34        22.97926
515.78        22.98092
516.22        22.93049
516.66        22.85508
517.10        22.79706
517.54        22.77316
517.98        22.76724
518.42        22.78618
518.86         22.8428
519.30        22.93155
519.74        23.04783
520.18        23.15705
520.62        23.20041
521.06         23.1659
521.50        23.07073
521.93        22.94925
522.37        22.86319
522.81        22.82757
523.25         22.8233
523.69         22.8361
524.13        22.84066
524.57        22.82995
525.01        22.82096
525.45        22.80515
525.89        22.76697
526.32        22.70638
526.76        22.62432
527.20        22.55838
527.64        22.57224
528.08        22.67052
528.52        22.83048
528.96        22.98159
529.40        23.01196
529.83        22.89644
530.27        22.67663
530.71        22.42664
531.15        22.26422
531.59        22.21966
532.03        22.26197
532.46        22.33622
532.90        22.35248
533.34        22.29231
533.78         22.1942
534.22        22.10226
534.66        22.07855
535.09        22.13001
535.53        22.22697
535.97        22.34297
536.41        22.42302
536.85        22.44616
537.28        22.48887
537.72        22.53004
538.16        22.39401
538.60        22.15929
539.04        22.14435
539.47         22.3238
539.91        22.40446
540.35        22.37408
540.79        22.41269
541.22        22.51378
541.66        22.59582
542.10        22.65563
542.54        22.68311
542.97        22.69902
543.41        22.82598
543.85        23.03054
544.29        23.13119
544.72        23.13457
545.16        23.21566
545.60        23.37577
546.04        23.52195
546.47        23.64699
546.91        23.78219
547.35        23.92354
547.79        24.07015
548.22        24.21966
548.66        24.36703
549.10        24.51882
549.53        24.73262
549.97        24.97808
550.41        25.15015
550.84        25.23237
551.28        25.28109
551.72         25.3149
552.15        25.34392
552.59        25.39417
553.03        25.45418
553.46         25.5282
553.90        25.65614
554.34        25.82447
554.77        25.99592
555.21        26.16016
555.65        26.32116
556.08        26.46613
556.52        26.58691
556.96        26.67489
557.39        26.74378
557.83        26.80554
558.27        26.82093
558.70        26.81475
559.14        26.89079
559.57        27.02669
560.01        27.10716
560.45        27.12628
560.88        27.17067
561.32        27.25469
561.75        27.30627
562.19        27.35673
562.63        27.42791
563.06        27.51216
563.50        27.68938
563.93        27.89865
564.37        27.85318
564.80        27.63363
565.24        27.72285
565.68        28.06465
566.11        28.21938
566.55        28.17868
566.98        28.16498
567.42        28.21706
567.85        28.38151
568.29          28.476
568.72        28.64681
569.16        28.83422
569.60        29.02731
570.03        29.08766
570.47        29.20787
570.90        29.38647
571.34        29.25451
571.77        29.73872
572.21        29.65823
572.64        29.90514
573.08        29.77811
573.51        30.33053
573.95        30.29253
574.38        30.07212
574.82        30.01982
