SpectraSmart Spectrum 2.9.0.0
--------- Device Information -----------
Spectrum Name :  反射率_0
Saving Time :  2024/05/03 20:48:40
Spectro-Module Model Name : SE2030-DUVN
Spectro-Module Serial Number : OS361AC55029948
Wavelength Start : 200
Wavelength End : 1025
Wavelength Unit : Wavelength(nm)
Spectrum Unit : Reflectance(%)
-----------Spectrum Setting ------------
Integration Time : 20ms
Average : 10
Boxcar : 0
Background removal :  enabled
linearity correction :  enabled
SC :  disabled
Intensity correction :  disabled
DWT denoise :  enabled
savitzky-golay :  disabled
FFT :  disabled
Running average :  disabled
Kalman :  disabled
High pass :  disabled
---------------BEGIN--------------------
Wavelength(nm)             Reflectance(%)
200.29               0
200.75        98.50605
201.21         184.142
201.67       -5467.542
202.13       -171.2217
202.58       -81.05829
203.04       -44.13189
203.50       -25.09829
203.96       -20.41575
204.42       -31.51113
204.88       -93.56968
205.34        2216.448
205.80        216.7622
206.26         199.417
206.72        27421.77
207.18       -32.68727
207.64       -10.17143
208.10       -35.18551
208.55       -147.4966
209.01       -1297.153
209.47       -1907.353
209.93       -238.5573
210.39       -68.19952
210.85       -21.45805
211.31       -6.343861
211.77       -3.198401
212.23       -7.715951
212.69       -30.60698
213.14       -67.62968
213.60       -57.00173
214.06       -39.68488
214.52       -31.04774
214.98       -28.02787
215.44       -28.55654
215.90        -35.9168
216.36        65.36445
216.81       -10.74312
217.27       -21.13955
217.73       -40.72149
218.19       -128.6494
218.65       -1625.658
219.11       -8.102638
219.57        45.11441
220.02         56.6783
220.48        92.17541
220.94       -39.60459
221.40        12.56177
221.86        21.14815
222.32        23.46397
222.77        23.44925
223.23        21.92715
223.69         18.5863
224.15        15.18861
224.61         14.5611
225.06         15.7413
225.52         17.1774
225.98        18.09658
226.44        18.63003
226.90        18.91866
227.36        19.80729
227.81        22.57874
228.27        26.67999
228.73        30.96922
229.19        33.20485
229.65        31.88799
230.10        28.14203
230.56        23.51976
231.02         20.0202
231.48        19.82132
231.93        22.52496
232.39        26.96366
232.85        31.42747
233.31        33.50259
233.77         32.8017
234.22        30.13659
234.68         26.8901
235.14        25.37687
235.60        26.35335
236.05        29.26389
236.51        33.07421
236.97         35.5629
237.43        35.75493
237.88        34.55108
238.34        32.92509
238.80        31.80977
239.26        31.42041
239.71        33.78978
240.17        35.30332
240.63        38.01373
241.08        38.51311
241.54        36.26653
242.00        33.64486
242.46        33.37731
242.91        36.12735
243.37        42.26382
243.83         51.5702
244.28        53.62051
244.74        35.06512
245.20        4.087502
245.66       -22.39143
246.11       -35.74013
246.57       -38.78528
247.03       -35.56337
247.48       -29.54025
247.94       -24.30221
248.40       -20.21005
248.85       -16.60699
249.31       -13.82234
249.77       -13.81482
250.22       -16.24248
250.68       -19.78151
251.14       -22.64437
251.59       -23.59555
252.05       -22.07815
252.51        -16.6922
252.96       -5.802068
253.42        9.888258
253.88        24.95275
254.33        35.40085
254.79        41.34705
255.25        44.83495
255.70        46.67438
256.16        47.38246
256.62        47.46444
257.07        47.31979
257.53        47.32526
257.99        47.26169
258.44        46.80453
258.90        46.02674
259.35        44.75455
259.81        43.53536
260.27        42.39653
260.72        41.40034
261.18        40.78849
261.63         40.3086
262.09        40.02738
262.55         39.7555
263.00        39.39802
263.46        39.02057
263.91        38.61967
264.37        38.41684
264.83        38.35089
265.28        38.32445
265.74        38.18559
266.19        37.54185
266.65        36.48517
267.11          35.128
267.56        33.76909
268.02        32.89146
268.47        32.52709
268.93        32.54421
269.38        32.66855
269.84        32.43588
270.30        31.76141
270.75        30.81135
271.21        29.87811
271.66        29.28984
272.12        29.10641
272.57        29.15202
273.03        29.23997
273.48        29.11335
273.94        28.70783
274.39        28.13129
274.85        27.45221
275.31        26.67872
275.76        25.85426
276.22        25.03262
276.67        24.32366
277.13        23.96317
277.58        23.90299
278.04        24.08862
278.49        24.28021
278.95         24.1508
279.40        23.62314
279.86        22.89056
280.31        22.12589
280.77        21.64302
281.22        21.42712
281.68        21.40557
282.13        21.43162
282.59        21.34941
283.04        21.10758
283.50        20.78588
283.95        20.45371
284.41        20.22225
284.86        20.10593
285.32        20.09079
285.77        20.10492
286.22        20.09508
286.68        20.05523
287.13        19.98183
287.59        19.94378
288.04        20.00143
288.50         20.1688
288.95        20.38711
289.41        20.58778
289.86        20.62477
290.32        20.49767
290.77        20.25724
291.22         19.9972
291.68        19.83889
292.13        19.81469
292.59         19.9173
293.04         20.1302
293.50        20.43804
293.95        20.81411
294.40        21.25888
294.86        21.76738
295.31         22.3348
295.77        22.95292
296.22        23.59944
296.68        24.23007
297.13        24.77492
297.58        25.20497
298.04        25.55526
298.49        25.84054
298.95        26.12127
299.40        26.41408
299.85        26.71948
300.31        27.09241
300.76        27.58636
301.21        28.20662
301.67        28.92961
302.12        29.64653
302.58        30.20437
303.03        30.55364
303.48        30.74483
303.94        30.89071
304.39        31.11342
304.84        31.46164
305.30        31.88846
305.75        32.31369
306.20        32.64343
306.66        32.86184
307.11        32.98715
307.57        33.06901
308.02        33.11477
308.47        33.15696
308.93        33.19191
309.38        33.22022
309.83        33.28411
310.29        33.38446
310.74        33.49882
311.19         33.5953
311.65        33.61645
312.10         33.5398
312.55        33.38519
313.00        33.17356
313.46        32.94156
313.91        32.69683
314.36        32.44943
314.82        32.21402
315.27        32.00039
315.72        31.81917
316.18        31.66901
316.63        31.55134
317.08        31.46847
317.53        31.41211
317.99        31.37135
318.44        31.32136
318.89        31.20979
319.35        31.02441
319.80         30.7768
320.25        30.50186
320.70        30.26137
321.16        30.06402
321.61          29.899
322.06          29.728
322.51        29.49086
322.97        29.17463
323.42        28.81101
323.87        28.43596
324.32        28.10877
324.78        27.84275
325.23        27.62655
325.68        27.43535
326.13        27.23248
326.59        26.99583
327.04        26.75481
327.49        26.50839
327.94        26.26397
328.39        26.02747
328.85         25.7893
329.30        25.56981
329.75        25.38003
330.20        25.22267
330.66        25.08386
331.11        24.96707
331.56        24.84113
332.01        24.69837
332.46        24.54807
332.92        24.37912
333.37        24.20672
333.82        24.02646
334.27        23.83567
334.72         23.6635
335.17        23.56121
335.63        23.52671
336.08        23.55461
336.53        23.58541
336.98         23.5295
337.43         23.3658
337.88        23.12698
338.34        22.85363
338.79        22.61496
339.24         22.4404
339.69        22.31668
340.14        22.24761
340.59        22.23917
341.05        22.27884
341.50        22.35521
341.95        22.43894
342.40        22.48588
342.85         22.4769
343.30        22.41835
343.75        22.29466
344.20        22.08982
344.66        21.82399
345.11         21.5101
345.56        21.21338
346.01        21.02734
346.46        20.97342
346.91        21.02758
347.36        21.13843
347.81        21.22042
348.26        21.24438
348.72        21.22829
349.17        21.18835
349.62        21.16046
350.07        21.15285
350.52        21.14855
350.97        21.12745
351.42        21.06404
351.87        20.95419
352.32        20.80974
352.77        20.65903
353.22        20.54374
353.67        20.47602
354.13        20.45392
354.58        20.43771
355.03        20.38274
355.48        20.28154
355.93        20.14978
356.38        20.02544
356.83        19.96888
357.28        19.98651
357.73         20.0485
358.18        20.10884
358.63        20.09598
359.08        19.98953
359.53        19.81408
359.98         19.5922
360.43        19.35991
360.88        19.13557
361.33        18.91284
361.78        18.70609
362.23        18.53524
362.68        18.40251
363.13        18.30753
363.58        18.22761
364.03        18.12332
364.48        17.98685
364.93         17.8288
365.38        17.67426
365.83        17.56208
366.28        17.49929
366.73        17.47092
367.18        17.45084
367.63        17.40036
368.08        17.30711
368.53        17.17888
368.98        17.03669
369.43        16.91118
369.88        16.80747
370.33        16.71748
370.78        16.61354
371.23        16.45235
371.68        16.23232
372.13        15.97615
372.58        15.73058
373.03        15.56225
373.48        15.48138
373.93        15.46207
374.38          15.465
374.83        15.42532
375.28        15.32212
375.72        15.17082
376.17        14.99763
376.62        14.81275
377.07        14.62425
377.52        14.42547
377.97        14.23867
378.42        14.10524
378.87        14.03459
379.32        14.01927
379.77        14.02349
380.22        13.99019
380.67        13.90689
381.11        13.78981
381.56        13.66726
382.01        13.60115
382.46        13.60693
382.91        13.66282
383.36        13.73046
383.81        13.75421
384.26        13.72158
384.71           13.65
385.15        13.56252
385.60        13.51278
386.05        13.50467
386.50        13.51576
386.95        13.52603
387.40        13.50559
387.85        13.45003
388.29        13.37365
388.74        13.28989
389.19        13.18305
389.64        13.05776
390.09        12.91395
390.54        12.79656
390.98        12.76652
391.43        12.83124
391.88        12.98611
392.33        13.15241
392.78        13.15034
393.23        12.99946
393.67        12.86983
394.12        12.79744
394.57        12.70124
395.02        12.59262
395.47        12.52088
395.91        12.48896
396.36        12.46035
396.81        12.43985
397.26        12.44841
397.71        12.45495
398.15        12.42576
398.60        12.37549
399.05        12.23613
399.50        12.08193
399.95        12.15934
400.39        12.42105
400.84        12.49895
401.29        12.36871
401.74        12.29302
402.18        12.27538
402.63        12.15575
403.08         12.0024
403.53        11.90988
403.97         12.0687
404.42        12.28018
404.87        12.51509
405.32        12.64381
405.76        12.63227
406.21        12.52351
406.66        12.37165
407.11         12.2647
407.55         12.2318
408.00        12.24496
408.45        12.27396
408.90        12.26463
409.34        12.20226
409.79        12.10893
410.24        12.02222
410.68        11.98926
411.13        12.01956
411.58        12.09725
412.03        12.17964
412.47        12.19573
412.92        12.12582
413.37        11.99784
413.81        11.86518
414.26        11.81449
414.71        11.85589
415.15        11.97059
415.60        12.10318
416.05        12.16518
416.49        12.13039
416.94        12.03016
417.39        11.91695
417.83        11.86704
418.28        11.89688
418.73        11.97544
419.17        12.06986
419.62        12.12039
420.07        12.10884
420.51        12.05574
420.96        11.97733
421.41        11.88613
421.85        11.78873
422.30        11.69211
422.74        11.60669
423.19        11.58406
423.64        11.61866
424.08        11.68492
424.53        11.75569
424.98        11.83239
425.42        11.91019
425.87        11.94858
426.31        11.95907
426.76        12.03892
427.21        12.15612
427.65        12.13603
428.10        12.01765
428.54         11.9897
428.99        12.06904
429.44         12.2269
429.88        12.37029
430.33        12.28561
430.77         12.0261
431.22        11.88006
431.66        11.88678
432.11        11.95526
432.56        12.04502
433.00        12.14914
433.45         12.1559
433.89        12.03601
434.34        11.47109
434.78        11.50461
435.23        12.01173
435.67        12.20069
436.12        12.05438
436.57        12.01127
437.01        12.10036
437.46        12.13561
437.90        12.11533
438.35         12.0919
438.79        12.05936
439.24        11.99908
439.68         11.9204
440.13        11.86216
440.57        11.81761
441.02        11.76235
441.46        11.69706
441.91        11.62689
442.35        11.56397
442.80        11.60776
443.24        11.72085
443.69        11.76346
444.13        11.73096
444.58         11.7404
445.02        11.78992
445.47        11.80257
445.91        11.78359
446.36        11.78616
446.80        11.81095
447.24        11.84851
447.69         11.8815
448.13        11.88154
448.58        11.84682
449.02        11.78572
449.47        11.73057
449.91        11.72324
450.36        11.77295
450.80        11.86212
451.25        11.95509
451.69        11.99162
452.13        11.95846
452.58        11.87343
453.02        11.76947
453.47        11.70505
453.91        11.69416
454.36         11.7195
454.80        11.74774
455.24        11.74297
455.69        11.70143
456.13        11.59783
456.58        11.46684
457.02        11.49261
457.46        11.49853
457.91        11.50688
458.35        11.45765
458.79        11.46291
459.24        11.50338
459.68         11.4521
460.13        11.34767
460.57        11.30351
461.01        11.33568
461.46        11.38289
461.90        11.42248
462.34         11.4317
462.79        11.39981
463.23        11.33476
463.68        11.26752
464.12        11.23676
464.56        11.25071
465.01        11.32712
465.45        11.41597
465.89        11.41175
466.34        11.33908
466.78        11.32422
467.22        11.38071
467.67         11.4268
468.11        11.45391
468.55        11.46655
468.99        11.46538
469.44        11.46761
469.88        11.47579
470.32        11.46762
470.77        11.45353
471.21        11.46825
471.65        11.51351
472.10        11.57651
472.54        11.63977
472.98        11.68348
473.42        11.70166
473.87        11.70559
474.31        11.69273
474.75          11.671
475.20        11.64992
475.64         11.6218
476.08        11.59585
476.52        11.60251
476.97        11.64726
477.41        11.69208
477.85        11.71144
478.29        11.88619
478.74        11.81486
479.18        11.90715
479.62        12.03039
480.06         12.1034
480.50        12.11619
480.95        12.12049
481.39        12.13059
481.83        12.15431
482.27        12.20386
482.72        12.29207
483.16         12.3858
483.60        12.43677
484.04        12.44656
484.48        12.37638
484.93         12.3258
485.37        12.49545
485.81         12.8781
486.25        13.02721
486.69        13.15065
487.14        12.95339
487.58        13.48964
488.02        13.05881
488.46        13.44517
488.90        13.28772
489.34        12.99308
489.79        13.09153
490.23        13.49641
490.67        13.91623
491.11        14.20593
491.55        14.20447
491.99        13.99056
492.43        13.97114
492.88        14.18178
493.32        14.35867
493.76        14.46173
494.20        14.57425
494.64        14.69217
495.08        14.79224
495.52        14.88913
495.96        15.01763
496.41        15.18028
496.85        15.34002
497.29        15.48968
497.73         15.6745
498.17         15.8603
498.61        15.93731
499.05        15.92181
499.49        15.90288
499.93        15.93022
500.37        16.07425
500.82        16.29512
501.26         16.4297
501.70        16.45905
502.14        16.47989
502.58        16.52505
503.02         16.6009
503.46        16.71567
503.90        16.86602
504.34        17.01839
504.78        17.11736
505.22        17.14974
505.66        17.12735
506.10        17.07766
506.54        17.08354
506.98        17.16805
507.42        17.24283
507.86        17.26098
508.30        17.52311
508.74        17.40659
509.18        17.42124
509.62        17.41909
510.06        17.47188
510.50        17.58521
510.94        17.74193
511.38        17.90653
511.82        18.00406
512.26        18.01813
512.70        17.97428
513.14        17.90174
513.58        17.84733
514.02        17.82667
514.46        17.82286
514.90         17.8371
515.34        17.87076
515.78        17.91923
516.22        17.98806
516.66        18.04944
517.10        18.05622
517.54        18.00398
517.98        17.90636
518.42        17.81129
518.86        17.79747
519.30        17.87894
519.74         18.0276
520.18          18.192
520.62        18.28738
521.06        18.28898
521.50          18.223
521.93        18.11907
522.37        18.02736
522.81        17.96505
523.25        17.91709
523.69        17.88053
524.13        17.85133
524.57        17.82677
525.01        17.81372
525.45         17.8042
525.89        17.78193
526.32        17.74258
526.76        17.68928
527.20         17.6347
527.64        17.60214
528.08        17.59515
528.52        17.60627
528.96        17.61456
529.40         17.5878
529.83        17.51686
530.27        17.41492
530.71        17.30591
531.15        17.22799
531.59        17.19025
532.03        17.18513
532.46        17.18478
532.90        17.14551
533.34         17.0619
533.78        16.95137
534.22        16.85095
534.66        16.81354
535.09        16.84357
535.53        16.92304
535.97        17.01272
536.41        17.03711
536.85        16.97856
537.28        16.90638
537.72        16.84505
538.16        16.72808
538.60        16.62292
539.04        16.74225
539.47        17.02343
539.91        17.17315
540.35        17.16282
540.79        17.15221
541.22        17.16487
541.66        17.18543
542.10        17.22722
542.54        17.26816
542.97        17.31258
543.41        17.43788
543.85        17.61334
544.29        17.70777
544.72        17.73076
545.16        17.82131
545.60        17.98165
546.04         18.1374
546.47        18.27725
546.91        18.41703
547.35        18.55242
547.79        18.68592
548.22        18.82403
548.66        18.97559
549.10        19.14905
549.53        19.38659
549.97        19.65709
550.41        19.86413
550.84        19.98897
551.28        20.07763
551.72        20.15098
552.15        20.22765
552.59        20.32932
553.03        20.44149
553.46        20.55796
553.90        20.69742
554.34        20.84814
554.77        20.98764
555.21        21.11799
555.65        21.25829
556.08        21.40306
556.52        21.54055
556.96        21.66053
557.39        21.76927
557.83        21.87337
558.27        21.94125
558.70        21.98676
559.14        22.08467
559.57        22.21435
560.01        22.28247
560.45        22.29225
560.88        22.32807
561.32        22.40549
561.75         22.4635
562.19        22.52226
562.63        22.58955
563.06        22.65859
563.50        22.80056
563.93        22.97395
564.37        22.95571
564.80         22.8127
565.24        22.93497
565.68        23.27094
566.11        23.44653
566.55        23.45116
566.98        23.47651
567.42        23.55036
567.85        23.69967
568.29        23.77402
568.72         23.9031
569.16         24.0539
569.60        24.24031
570.03        24.45525
570.47        24.66705
570.90        24.82998
571.34        25.06725
571.77        25.29678
572.21        25.20077
572.64        25.25968
573.08        25.28171
573.51        25.84457
573.95        25.98079
574.38        25.89371
574.82        25.70355
