SpectraSmart Spectrum 2.9.0.0
--------- Device Information -----------
Spectrum Name :  反射率_0
Saving Time :  2024/05/03 20:39:17
Spectro-Module Model Name : SE2030-DUVN
Spectro-Module Serial Number : OS361AC55029948
Wavelength Start : 200
Wavelength End : 1025
Wavelength Unit : Wavelength(nm)
Spectrum Unit : Reflectance(%)
-----------Spectrum Setting ------------
Integration Time : 20ms
Average : 10
Boxcar : 0
Background removal :  enabled
linearity correction :  enabled
SC :  disabled
Intensity correction :  disabled
DWT denoise :  enabled
savitzky-golay :  disabled
FFT :  disabled
Running average :  disabled
Kalman :  disabled
High pass :  disabled
---------------BEGIN--------------------
Wavelength(nm)             Reflectance(%)
200.29               0
200.75        15.04056
201.21         45.4148
201.67       -1951.997
202.13         -72.305
202.58       -34.67668
203.04       -16.25336
203.50       -5.533472
203.96       -3.076225
204.42       -10.83229
204.88        -50.3813
205.34         1445.16
205.80        162.8228
206.26        180.1885
206.72        35435.04
207.18       -97.78276
207.64       -59.39164
208.10       -73.41938
208.55       -158.9573
209.01       -1009.407
209.47       -1264.967
209.93       -142.1633
210.39       -35.65646
210.85       -8.113132
211.31       0.2772112
211.77        1.238862
212.23       -3.893551
212.69       -26.34811
213.14       -65.19649
213.60       -58.37329
214.06       -41.86298
214.52       -33.65456
214.98       -32.36386
215.44        -37.3765
215.90       -60.99811
216.36        264.2692
216.81        30.51012
217.27        17.96471
217.73        19.26181
218.19        53.38392
218.65         1011.05
219.11        75.64402
219.57        22.57952
220.02        13.14509
220.48        4.918177
220.94        23.93189
221.40        15.45226
221.86        14.54731
222.32        15.76422
222.77        18.62693
223.23        24.02883
223.69        31.36055
224.15        32.55059
224.61        24.10286
225.06        13.44473
225.52        6.329393
225.98         4.04577
226.44        5.440629
226.90        10.08491
227.36        16.77227
227.81         20.5211
228.27        18.93001
228.73        14.74494
229.19        11.07509
229.65        10.32483
230.10        11.97073
230.56        14.57505
231.02        17.28538
231.48        19.44639
231.93        20.98255
232.39         22.2633
232.85        23.32299
233.31        24.10241
233.77        24.64986
234.22        24.94691
234.68        25.16151
235.14        25.59012
235.60        26.31928
236.05        27.33619
236.51        28.46841
236.97        29.34503
237.43        29.75899
237.88        30.01138
238.34        30.22511
238.80        30.40139
239.26          30.611
239.71         33.1887
240.17        35.00233
240.63         39.8151
241.08        45.22461
241.54        48.81054
242.00        50.35574
242.46        52.30213
242.91        56.14616
243.37        62.04422
243.83        69.75165
244.28        70.57236
244.74        53.38641
245.20        26.34478
245.66        4.080001
246.11       -7.019604
246.57       -9.143296
247.03       -5.320532
247.48        1.030918
247.94        6.532455
248.40        11.05498
248.85        15.30811
249.31        20.00667
249.77        24.44819
250.22        27.57829
250.68         29.2673
251.14        30.38153
251.59        32.35971
252.05        35.98755
252.51        41.84465
252.96        50.41743
253.42        58.76735
253.88        62.20047
254.33        60.66275
254.79        56.47997
255.25        51.60473
255.70        47.53305
256.16        44.96677
256.62        43.61582
257.07        43.34913
257.53        44.03318
257.99        44.94191
258.44        45.73934
258.90        46.49649
259.35        46.74501
259.81        46.88577
260.27        46.46328
260.72        45.06089
261.18        43.23072
261.63        41.14197
262.09        39.42893
262.55        38.44501
263.00        38.05514
263.46        38.07116
263.91        38.14373
264.37        38.01182
264.83        37.57138
265.28        36.94345
265.74        36.24894
266.19        35.44801
266.65        34.65196
267.11        33.80184
267.56        32.99681
268.02          32.458
268.47        32.16027
268.93        32.06224
269.38        31.98057
269.84        31.60024
270.30        30.89034
270.75        29.96568
271.21        29.07957
271.66        28.51224
272.12        28.30968
272.57        28.32168
273.03        28.38197
273.48        28.25644
273.94        27.88438
274.39        27.36082
274.85        26.72729
275.31           25.96
275.76        25.09931
276.22        24.20901
276.67        23.42829
277.13          23.028
277.58        22.96242
278.04        23.16094
278.49        23.35589
278.95         23.1759
279.40        22.54399
279.86        21.68057
280.31        20.78821
280.77        20.20837
281.22        19.93255
281.68        19.87185
282.13        19.88051
282.59        19.80091
283.04        19.57806
283.50        19.29057
283.95        18.98891
284.41        18.75183
284.86        18.59423
285.32         18.5117
285.77        18.46302
286.22        18.44178
286.68        18.44515
287.13        18.44792
287.59        18.49218
288.04        18.60195
288.50        18.78423
288.95        19.00404
289.41        19.19136
289.86        19.19943
290.32        19.03577
290.77         18.7494
291.22        18.47741
291.68        18.40661
292.13        18.57232
292.59         18.9454
293.04         19.4292
293.50        19.87338
293.95        20.22337
294.40        20.52295
294.86        20.85702
295.31        21.35863
295.77        22.04809
296.22        22.85686
296.68         23.6735
297.13        24.31548
297.58        24.71999
298.04        24.96206
298.49        25.09611
298.95         25.2382
299.40         25.4226
299.85        25.62824
300.31        25.90387
300.76        26.29698
301.21        26.81025
301.67        27.43017
302.12        28.04182
302.58        28.47785
303.03        28.69116
303.48        28.73559
303.94        28.74346
304.39        28.86801
304.84        29.15837
305.30        29.55765
305.75        29.95798
306.20        30.22088
306.66          30.324
307.11        30.30395
307.57        30.24233
308.02        30.19864
308.47        30.21153
308.93        30.25648
309.38        30.30514
309.83        30.35284
310.29        30.38794
310.74        30.40353
311.19        30.38596
311.65        30.30713
312.10        30.15713
312.55        29.95024
313.00        29.69971
313.46         29.4298
313.91        29.14642
314.36        28.86275
314.82        28.60453
315.27        28.39829
315.72        28.25406
316.18        28.16145
316.63        28.09838
317.08        28.03131
317.53        27.94344
317.99         27.8329
318.44        27.69857
318.89         27.5312
319.35        27.33099
319.80          27.099
320.25        26.84674
320.70         26.5973
321.16        26.35126
321.61        26.10979
322.06        25.86082
322.51        25.58601
322.97        25.28346
323.42        24.97138
323.87         24.6591
324.32        24.36238
324.78        24.08488
325.23        23.82823
325.68        23.59375
326.13        23.38716
326.59        23.19814
327.04        23.03838
327.49        22.88657
327.94        22.71552
328.39        22.51848
328.85        22.29703
329.30        22.07558
329.75        21.87786
330.20        21.71317
330.66        21.56477
331.11         21.4388
331.56        21.31375
332.01        21.18303
332.46        21.05393
332.92        20.91068
333.37        20.75495
333.82        20.57742
334.27        20.37558
334.72        20.17688
335.17        20.03037
335.63        19.93854
336.08        19.90153
336.53        19.86543
336.98        19.74733
337.43        19.53143
337.88        19.24747
338.34        18.95201
338.79        18.73876
339.24        18.63227
339.69          18.602
340.14         18.6096
340.59        18.59358
341.05        18.52937
341.50        18.43433
341.95        18.31175
342.40        18.17108
342.85        18.01823
343.30        17.84759
343.75        17.66722
344.20        17.49375
344.66        17.34374
345.11        17.22197
345.56        17.12823
346.01        17.05334
346.46         16.9973
346.91        16.95776
347.36        16.95412
347.81        17.01895
348.26        17.14652
348.72        17.31586
349.17        17.46866
349.62        17.52135
350.07         17.4569
350.52        17.30331
350.97        17.10885
351.42        16.95297
351.87        16.86037
352.32        16.80782
352.77        16.78172
353.22         16.7583
353.67        16.72654
354.13        16.70325
354.58         16.6659
355.03        16.59236
355.48        16.48322
355.93        16.34597
356.38        16.21041
356.83        16.12662
357.28        16.10322
357.73        16.12177
358.18         16.1555
358.63        16.15953
359.08        16.11988
359.53        16.05171
359.98        15.96009
360.43        15.85452
360.88        15.74043
361.33        15.61003
361.78        15.48182
362.23        15.38464
362.68        15.32234
363.13        15.29306
363.58        15.25784
364.03        15.15363
364.48        14.97173
364.93        14.73065
365.38        14.49472
365.83        14.36236
366.28        14.35116
366.73        14.43246
367.18        14.52816
367.63        14.51048
368.08         14.3522
368.53        14.09599
368.98        13.82582
369.43        13.66978
369.88         13.6554
370.33        13.73884
370.78        13.85096
371.23        13.87651
371.68        13.78014
372.13        13.60036
372.58         13.3849
373.03        13.20355
373.48        13.07778
373.93         12.9857
374.38        12.90923
374.83        12.82272
375.28        12.72005
375.72        12.61014
376.17        12.51696
376.62        12.44752
377.07        12.40015
377.52        12.36363
377.97        12.32796
378.42        12.28044
378.87        12.21937
379.32        12.15458
379.77        12.08522
380.22        12.00762
380.67        11.92324
381.11        11.83291
381.56        11.75449
382.01        11.72789
382.46        11.75807
382.91        11.83063
383.36        11.90187
383.81        11.90774
384.26        11.83435
384.71        11.69675
385.15        11.53192
385.60        11.41749
386.05        11.36638
386.50        11.35882
386.95        11.35679
387.40        11.30013
387.85        11.18511
388.29        11.04025
388.74        10.91431
389.19        10.84724
389.64        10.84713
390.09         10.8892
390.54        10.96797
390.98        11.06543
391.43        11.16682
391.88        11.28988
392.33        11.39203
392.78        11.35681
393.23        11.21447
393.67        11.10001
394.12        11.04193
394.57        10.96671
395.02        10.88227
395.47         10.8351
395.91        10.82523
396.36        10.81392
396.81         10.8013
397.26        10.80277
397.71        10.79368
398.15        10.74886
398.60        10.68455
399.05        10.54713
399.50        10.39347
399.95        10.42379
400.39        10.59596
400.84        10.59545
401.29        10.43186
401.74        10.37377
402.18        10.42914
402.63         10.4473
403.08        10.43198
403.53        10.37751
403.97        10.43254
404.42        10.45254
404.87        10.46823
405.32        10.45604
405.76        10.41151
406.21        10.34658
406.66        10.27364
407.11         10.2144
407.55        10.17773
408.00        10.15645
408.45        10.14401
408.90        10.12592
409.34        10.09793
409.79         10.0637
410.24        10.03477
410.68        10.02518
411.13        10.03768
411.58        10.06775
412.03        10.09596
412.47         10.0912
412.92         10.0447
413.37         9.96885
413.81        9.892183
414.26        9.864833
414.71        9.889613
415.15        9.956214
415.60        10.02578
416.05        10.03859
416.49        9.978454
416.94        9.866823
417.39        9.742256
417.83        9.659442
418.28         9.62993
418.73        9.634062
419.17        9.649952
419.62        9.637222
420.07        9.587728
420.51        9.519442
420.96        9.447292
421.41        9.384215
421.85         9.33158
422.30        9.287462
422.74        9.256258
423.19        9.275784
423.64        9.337647
424.08        9.422139
424.53        9.490935
424.98        9.520435
425.42        9.503439
425.87        9.415775
426.31        9.300521
426.76        9.285757
427.21        9.359013
427.65        9.377458
428.10        9.336899
428.54        9.326138
428.99        9.346344
429.44        9.393264
429.88        9.430597
430.33        9.347649
430.77        9.190676
431.22        9.156535
431.66        9.242969
432.11        9.327016
432.56        9.360631
433.00        9.351701
433.45        9.242352
433.89        9.067106
434.34        8.609447
434.78        8.636175
435.23        9.032924
435.67        9.173569
436.12        9.036932
436.57        8.964931
437.01        8.989954
437.46         8.99114
437.90        8.974415
438.35        8.971373
438.79        8.969962
439.24        8.945821
439.68        8.902939
440.13        8.873073
440.57        8.855246
441.02        8.837325
441.46        8.817787
441.91        8.793496
442.35         8.76735
442.80        8.808312
443.24        8.886784
443.69         8.90079
444.13        8.847242
444.58        8.814713
445.02        8.806217
445.47        8.767748
445.91        8.714016
446.36        8.699214
446.80        8.725133
447.24        8.777704
447.69        8.835494
448.13        8.862499
448.58        8.851183
449.02        8.812313
449.47        8.764085
449.91        8.730793
450.36        8.720346
450.80        8.720878
451.25        8.725847
451.69        8.722436
452.13        8.707046
452.58        8.687387
453.02        8.659549
453.47        8.620641
453.91        8.572877
454.36        8.516722
454.80        8.465491
455.24        8.451176
455.69        8.481494
456.13        8.517053
456.58        8.539089
457.02        8.619234
457.46        8.611964
457.91        8.554972
458.35        8.441872
458.79        8.412434
459.24        8.463806
459.68        8.480735
460.13        8.463109
460.57        8.452295
461.01        8.452458
461.46        8.435794
461.90        8.403315
462.34        8.363441
462.79        8.318157
463.23        8.263148
463.68        8.222772
464.12        8.227955
464.56        8.278989
465.01        8.385101
465.45          8.4922
465.89        8.495806
466.34        8.412481
466.78        8.345194
467.22        8.318676
467.67        8.302426
468.11        8.300972
468.55        8.308532
468.99        8.321783
469.44        8.346178
469.88        8.377443
470.32        8.401688
470.77        8.412769
471.21        8.412265
471.65        8.399942
472.10        8.375742
472.54        8.348643
472.98        8.339807
473.42        8.352894
473.87        8.383615
474.31        8.418323
474.75        8.443676
475.20        8.458747
475.64        8.463712
476.08        8.459741
476.52        8.460054
476.97        8.469848
477.41        8.463443
477.85        8.438606
478.29        8.553693
478.74        8.524907
479.18        8.637645
479.62        8.780323
480.06        8.867746
480.50        8.884433
480.95        8.876609
481.39        8.861971
481.83        8.858349
482.27        8.882824
482.72        8.944315
483.16        9.021257
483.60        9.088994
484.04        9.138419
484.48        9.131116
484.93         9.16822
485.37        9.376822
485.81        9.649224
486.25         10.0096
486.69        9.848185
487.14        9.499355
487.58        10.04244
488.02        9.931044
488.46        10.00063
488.90        9.955537
489.34         9.89426
489.79        9.994764
490.23        10.18529
490.67        10.45507
491.11        10.70237
491.55        10.67448
491.99        10.44617
492.43        10.41623
492.88        10.61707
493.32        10.81561
493.76        10.96116
494.20        11.09161
494.64        11.19561
495.08        11.26483
495.52        11.32122
495.96        11.40847
496.41        11.53447
496.85        11.66601
497.29        11.79884
497.73        11.96558
498.17        12.14121
498.61        12.25317
499.05        12.29719
499.49        12.30572
499.93        12.31188
500.37        12.38034
500.82        12.50593
501.26        12.60327
501.70        12.66563
502.14        12.75513
502.58         12.8636
503.02        12.94223
503.46        12.98677
503.90        13.01279
504.34        13.03163
504.78         13.0617
505.22        13.11044
505.66        13.16966
506.10        13.22876
506.54        13.30158
506.98        13.39149
507.42        13.44275
507.86        13.44246
508.30        13.66265
508.74        13.62571
509.18        13.71402
509.62         13.7847
510.06        13.85304
510.50        13.91503
510.94        13.97254
511.38        14.02623
511.82         14.0625
512.26        14.08166
512.70        14.09084
513.14        14.09082
513.58        14.08373
514.02        14.07169
514.46        14.05077
514.90        14.03751
515.34        14.05758
515.78        14.11332
516.22        14.20063
516.66        14.27961
517.10        14.28641
517.54        14.21277
517.98        14.07879
518.42        13.94541
518.86        13.91011
519.30        13.99181
519.74         14.1582
520.18        14.34345
520.62        14.43958
521.06        14.41711
521.50        14.30911
521.93        14.16516
522.37        14.06522
522.81        14.03191
523.25        14.03946
523.69        14.06101
524.13        14.05532
524.57        14.01157
525.01         13.9488
525.45        13.88181
525.89        13.83051
526.32         13.8002
526.76        13.78198
527.20        13.77091
527.64         13.7624
528.08        13.75274
528.52        13.74411
528.96        13.72857
529.40        13.69376
529.83        13.63615
530.27        13.56036
530.71        13.48064
531.15        13.42089
531.59        13.38628
532.03        13.37383
532.46        13.36323
532.90        13.32172
533.34        13.24698
533.78        13.15329
534.22        13.07047
534.66        13.04154
535.09        13.06973
535.53        13.13872
535.97        13.21883
536.41        13.25251
536.85         13.2244
537.28         13.1874
537.72        13.15219
538.16        13.05345
538.60        12.94345
539.04        12.99346
539.47        13.16834
539.91        13.26191
540.35        13.25785
540.79        13.27473
541.22        13.31908
541.66        13.35897
542.10        13.39981
542.54        13.43064
542.97        13.46536
543.41        13.58129
543.85        13.75672
544.29           13.88
544.72        13.94689
545.16        14.05109
545.60        14.18976
546.04        14.30971
546.47        14.40521
546.91        14.49323
547.35        14.57539
547.79        14.65527
548.22        14.74329
548.66        14.85426
549.10        14.99608
549.53        15.19899
549.97        15.43692
550.41        15.62978
550.84        15.75872
551.28        15.85987
551.72        15.94166
552.15        16.00723
552.59        16.07374
553.03        16.13435
553.46        16.19726
553.90        16.29791
554.34        16.43118
554.77        16.57267
555.21        16.71473
555.65        16.85639
556.08        16.98821
556.52        17.10694
556.96        17.20571
557.39        17.29179
557.83        17.37261
558.27        17.42092
558.70         17.4555
559.14        17.54804
559.57        17.68394
560.01        17.78658
560.45        17.84328
560.88        17.89831
561.32        17.96074
561.75         17.9883
562.19         18.0167
562.63        18.08053
563.06        18.17972
563.50        18.36547
563.93        18.57847
564.37        18.59057
564.80        18.44853
565.24        18.48879
565.68        18.69206
566.11        18.79157
566.55        18.79052
566.98         18.8316
567.42        18.92974
567.85        19.09312
568.29        19.19058
568.72        19.33872
569.16        19.50628
569.60        19.67323
570.03        19.83296
570.47        20.06841
570.90        20.12247
571.34        20.36685
571.77        20.57116
572.21        20.43675
572.64        20.52928
573.08         20.5447
573.51        21.11561
573.95        21.20517
574.38        20.98012
574.82        21.06977
