SpectraSmart Spectrum 2.9.0.0
--------- Device Information -----------
Spectrum Name :  反射率_0
Saving Time :  2024/05/03 20:41:53
Spectro-Module Model Name : SE2030-DUVN
Spectro-Module Serial Number : OS361AC55029948
Wavelength Start : 200
Wavelength End : 1025
Wavelength Unit : Wavelength(nm)
Spectrum Unit : Reflectance(%)
-----------Spectrum Setting ------------
Integration Time : 20ms
Average : 10
Boxcar : 0
Background removal :  enabled
linearity correction :  enabled
SC :  disabled
Intensity correction :  disabled
DWT denoise :  enabled
savitzky-golay :  disabled
FFT :  disabled
Running average :  disabled
Kalman :  disabled
High pass :  disabled
---------------BEGIN--------------------
Wavelength(nm)             Reflectance(%)
200.29               0
200.75        23.49306
201.21        59.54844
201.67       -2235.027
202.13       -77.80558
202.58       -35.97441
203.04       -15.06156
203.50       -2.349195
203.96        2.154948
204.42       -2.110084
204.88       -32.29747
205.34        1035.931
205.80         88.2979
206.26        26.95402
206.72       -19992.43
207.18        152.1468
207.64        112.7999
208.10        84.65834
208.55        15.69616
209.01        -696.129
209.47       -1291.619
209.93       -137.4141
210.39        -10.9694
210.85        25.47876
211.31          37.528
211.77        39.90173
212.23        36.72175
212.69        15.48837
213.14       -36.93461
213.60       -44.37906
214.06       -30.92765
214.52        -22.7175
214.98       -20.90923
215.44       -25.09841
215.90       -45.50979
216.36        231.4589
216.81        30.59933
217.27        16.97774
217.73        8.585801
218.19        -6.64335
218.65        145.9796
219.11        99.17861
219.57         73.1902
220.02        72.02698
220.48        103.9049
220.94       -28.86458
221.40        22.49945
221.86        30.11692
222.32        30.66714
222.77        27.81145
223.23        21.64249
223.69         11.7546
224.15        5.512705
224.61        9.361764
225.06        17.11003
225.52        23.80042
225.98        28.17505
226.44         31.1975
226.90        33.77932
227.36        35.86746
227.81        36.49557
228.27        35.18651
228.73        32.85543
229.19        30.03664
229.65        27.01409
230.10        24.12142
230.56         21.7565
231.02        20.46522
231.48        20.93044
231.93        22.85762
232.39        25.72194
232.85         28.7303
233.31        30.78557
233.77        31.65376
234.22        31.59498
234.68        31.14237
235.14        31.19092
235.60        32.02671
236.05         33.5057
236.51        34.99625
236.97        35.33018
237.43         34.2042
237.88        32.32966
238.34        30.65831
238.80        30.08842
239.26        30.90123
239.71        35.67517
240.17        41.57214
240.63        49.69015
241.08        53.73856
241.54        51.12971
242.00        45.46482
242.46        42.09575
242.91        41.80634
243.37        43.34516
243.83         45.5146
244.28        40.38082
244.74        21.77787
245.20      -0.5717159
245.66       -16.25246
246.11       -23.01874
246.57       -23.24685
247.03       -19.46929
247.48       -13.28761
247.94       -5.965305
248.40        2.287235
248.85        11.58033
249.31         20.1149
249.77        21.95406
250.22        16.93229
250.68        9.235209
251.14        2.422313
251.59       -1.229601
252.05       -1.623584
252.51        1.360923
252.96        9.276077
253.42        22.50715
253.88        36.61396
254.33        47.54169
254.79        52.87915
255.25        52.76141
255.70        50.03922
256.16        46.99564
256.62        44.79828
257.07        44.18484
257.53        44.99596
257.99        46.35243
258.44         47.4323
258.90        47.77922
259.35        47.08605
259.81         46.0834
260.27        44.92562
260.72        43.79209
261.18        42.98793
261.63         42.2567
262.09        41.64177
262.55        40.89827
263.00        39.96282
263.46        38.96036
263.91        38.02051
264.37        37.55555
264.83        37.52011
265.28        37.72952
265.74        37.90039
266.19        37.46943
266.65        36.49891
267.11        35.15855
267.56        33.80347
268.02        33.00126
268.47        32.79621
268.93        33.00704
269.38        33.33223
269.84        33.26398
270.30        32.69299
270.75        31.80679
271.21        30.87348
271.66         30.1812
272.12        29.80099
272.57        29.57504
273.03        29.40738
273.48        29.18968
273.94        28.88511
274.39        28.54978
274.85         28.1448
275.31        27.51998
275.76        26.68764
276.22        25.75504
276.67        24.90256
277.13        24.46302
277.58        24.40054
278.04        24.62022
278.49        24.83735
278.95        24.65989
279.40        24.00263
279.86        23.10096
280.31        22.15951
280.77        21.52326
281.22        21.18437
281.68        21.05821
282.13        21.00256
282.59        20.86967
283.04        20.60781
283.50        20.29544
283.95        19.98336
284.41        19.75324
284.86        19.61508
285.32        19.55985
285.77        19.53899
286.22         19.5358
286.68        19.54671
287.13        19.55297
287.59        19.59384
288.04        19.68754
288.50        19.84416
288.95        20.02632
289.41        20.18976
289.86        20.22607
290.32        20.14364
290.77        19.97488
291.22        19.80779
291.68        19.75887
292.13        19.85181
292.59         20.0773
293.04        20.39084
293.50        20.73169
293.95        21.06449
294.40        21.40317
294.86        21.78067
295.31        22.24783
295.77        22.81253
296.22        23.44526
296.68        24.07442
297.13        24.58405
297.58        24.93476
298.04        25.17175
298.49        25.35202
298.95        25.59707
299.40        25.92589
299.85        26.31369
300.31        26.74538
300.76        27.16791
301.21        27.57421
301.67        27.98545
302.12        28.37607
302.58        28.72258
303.03        29.00448
303.48        29.22209
303.94        29.43427
304.39        29.68522
304.84        29.99934
305.30        30.36136
305.75        30.68855
306.20        30.88176
306.66        30.93582
307.11        30.86823
307.57         30.7787
308.02        30.75547
308.47        30.83642
308.93        30.99398
309.38        31.15351
309.83        31.23561
310.29        31.21888
310.74         31.1191
311.19        30.98414
311.65        30.88707
312.10        30.83534
312.55        30.80285
313.00        30.74113
313.46        30.58011
313.91        30.30273
314.36        29.95892
314.82        29.60428
315.27         29.3116
315.72        29.11191
316.18         28.9794
316.63        28.90619
317.08        28.88278
317.53        28.89071
317.99        28.92362
318.44        28.94052
318.89         28.8604
319.35        28.66657
319.80        28.37907
320.25        28.04993
320.70        27.77156
321.16        27.56188
321.61        27.39808
322.06        27.24438
322.51        27.04233
322.97        26.77495
323.42        26.47716
323.87        26.15641
324.32        25.82433
324.78        25.48902
325.23        25.15079
325.68        24.83743
326.13          24.601
326.59        24.44018
327.04        24.35763
327.49        24.29309
327.94        24.15135
328.39        23.90753
328.85        23.58014
329.30        23.23495
329.75         22.9662
330.20        22.80448
330.66        22.71271
331.11        22.66325
331.56        22.57644
332.01        22.42978
332.46        22.25151
332.92        22.05168
333.37        21.87507
333.82        21.72606
334.27        21.58623
334.72        21.46881
335.17        21.40136
335.63        21.37285
336.08        21.38557
336.53        21.38279
336.98        21.27757
337.43        21.05553
337.88        20.75141
338.34        20.41955
338.79        20.15189
339.24        19.97986
339.69        19.87812
340.14          19.839
340.59        19.84787
341.05        19.88482
341.50        19.94986
341.95        19.99985
342.40        19.96827
342.85        19.84243
343.30        19.64009
343.75        19.40163
344.20         19.1997
344.66        19.06804
345.11        18.98856
345.56        18.95588
346.01        18.95369
346.46        18.97306
346.91        19.01645
347.36        19.07637
347.81        19.14068
348.26        19.19969
348.72         19.2463
349.17        19.26668
349.62        19.25071
350.07        19.19785
350.52        19.11448
350.97        19.00887
351.42        18.89493
351.87        18.78066
352.32        18.66548
352.77        18.56203
353.22        18.48797
353.67        18.44558
354.13        18.43728
354.58        18.43082
355.03        18.39116
355.48        18.31402
355.93        18.21406
356.38        18.11851
356.83        18.07219
357.28        18.08205
357.73        18.12516
358.18        18.18262
358.63        18.22453
359.08        18.23667
359.53        18.22867
359.98        18.18369
360.43         18.0773
360.88        17.91134
361.33        17.69165
361.78        17.46716
362.23        17.31351
362.68        17.24555
363.13          17.248
363.58        17.25966
364.03        17.17973
364.48        16.99058
364.93        16.72656
365.38        16.46474
365.83        16.32279
366.28         16.3241
366.73        16.42848
367.18        16.55964
367.63        16.59514
368.08        16.50108
368.53        16.31425
368.98        16.09587
369.43        15.93874
369.88         15.8657
370.33        15.84672
370.78        15.83631
371.23        15.76177
371.68        15.60645
372.13        15.40147
372.58        15.19205
373.03        15.04103
373.48        14.96254
373.93        14.93411
374.38         14.9237
374.83        14.88115
375.28        14.79093
375.72        14.66327
376.17        14.53164
376.62         14.4168
377.07        14.32444
377.52        14.24504
377.97        14.16957
378.42        14.08725
378.87        13.99855
379.32        13.91214
379.77        13.83715
380.22        13.78287
380.67        13.74909
381.11        13.73264
381.56        13.72045
382.01        13.70218
382.46        13.67296
382.91        13.63406
383.36        13.58766
383.81        13.53664
384.26        13.48233
384.71        13.42579
385.15        13.36033
385.60        13.29207
386.05        13.21796
386.50        13.13776
386.95        13.06579
387.40         13.0218
387.85        13.00768
388.29        13.01268
388.74        13.02207
389.19        12.98288
389.64         12.8893
390.09        12.75485
390.54        12.62609
390.98        12.56706
391.43          12.592
391.88        12.69527
392.33        12.81738
392.78        12.80968
393.23        12.69177
393.67         12.6201
394.12        12.60778
394.57        12.53869
395.02         12.4174
395.47        12.30633
395.91        12.22544
396.36        12.16911
396.81         12.1511
397.26        12.17844
397.71        12.21751
398.15        12.23032
398.60        12.22578
399.05        12.13946
399.50        12.02613
399.95        12.10446
400.39        12.32371
400.84        12.32048
401.29        12.10625
401.74        11.99712
402.18        12.00654
402.63        11.96158
403.08        11.88079
403.53        11.77778
403.97        11.82613
404.42        11.86016
404.87        11.90106
405.32        11.89817
405.76        11.84071
406.21        11.74799
406.66        11.64583
407.11        11.57876
407.55        11.55927
408.00        11.56907
408.45        11.58819
408.90        11.57857
409.34        11.52984
409.79        11.45784
410.24        11.37983
410.68        11.31672
411.13        11.27432
411.58        11.24118
412.03        11.21437
412.47         11.1932
412.92        11.17195
413.37        11.15541
413.81        11.13079
414.26        11.08939
414.71        11.02521
415.15        10.94425
415.60        10.85799
416.05        10.80264
416.49        10.79124
416.94        10.81772
417.39         10.8607
417.83        10.88789
418.28        10.88999
418.73        10.86676
419.17        10.84011
419.62         10.8449
420.07         10.8852
420.51        10.94363
420.96        10.97821
421.41        10.92002
421.85        10.76222
422.30        10.54664
422.74        10.32695
423.19        10.21021
423.64        10.20585
424.08        10.27064
424.53        10.36163
424.98        10.44824
425.42        10.51381
425.87        10.53596
426.31        10.52711
426.76        10.57497
427.21        10.65368
427.65        10.60609
428.10        10.47824
428.54         10.4554
428.99        10.55399
429.44        10.74309
429.88        10.92143
430.33         10.8712
430.77        10.63313
431.22        10.46763
431.66        10.42801
432.11        10.46445
432.56         10.5497
433.00         10.6733
433.45         10.7066
433.89        10.56962
434.34        9.980332
434.78        9.872737
435.23        10.17464
435.67        10.28183
436.12        10.19646
436.57        10.26541
437.01        10.46048
437.46        10.52778
437.90        10.44256
438.35        10.28337
438.79        10.10531
439.24         9.98296
439.68        9.943963
440.13        9.989217
440.57        10.07187
441.02        10.10224
441.46        10.05984
441.91        9.975506
442.35        9.881067
442.80        9.889249
443.24        9.976174
443.69        10.01042
444.13        9.989428
444.58        10.01696
445.02        10.08965
445.47         10.1429
445.91        10.16591
446.36        10.17998
446.80         10.1811
447.24        10.16448
447.69        10.13661
448.13        10.10867
448.58         10.0867
449.02        10.06985
449.47        10.05689
449.91        10.03859
450.36        10.01632
450.80        9.991693
451.25         9.97295
451.69        9.968733
452.13        9.979695
452.58        10.00086
453.02        10.01991
453.47        10.02363
453.91        10.00755
454.36        9.974642
454.80        9.929159
455.24        9.891633
455.69         9.87188
456.13        9.832173
456.58        9.773764
457.02        9.812264
457.46        9.789135
457.91           9.739
458.35        9.639644
458.79        9.625863
459.24        9.688493
459.68        9.705234
460.13        9.681069
460.57         9.67203
461.01        9.684427
461.46        9.679238
461.90        9.659963
462.34        9.642911
462.79        9.628183
463.23        9.609222
463.68        9.596248
464.12        9.595853
464.56        9.607708
465.01        9.657974
465.45        9.710474
465.89         9.68301
466.34        9.600326
466.78        9.565265
467.22         9.59464
467.67        9.630736
468.11        9.667451
468.55        9.705997
468.99        9.733731
469.44        9.743505
469.88        9.733115
470.32        9.690218
470.77        9.636834
471.21        9.624534
471.65        9.660926
472.10        9.727495
472.54        9.801949
472.98        9.855733
473.42        9.879905
473.87        9.889536
474.31        9.881242
474.75        9.859274
475.20         9.83324
475.64        9.796323
476.08        9.765371
476.52        9.780961
476.97         9.84903
477.41        9.931872
477.85        9.993924
478.29        10.16681
478.74        10.10164
479.18         10.1561
479.62        10.22689
480.06        10.26309
480.50        10.26158
480.95        10.25957
481.39        10.26948
481.83        10.29911
482.27         10.3621
482.72        10.47494
483.16        10.59987
483.60        10.69181
484.04        10.73822
484.48        10.68445
484.93        10.66164
485.37        10.90655
485.81        11.28309
486.25         11.7164
486.69        11.32575
487.14        11.09271
487.58          11.632
488.02        11.48376
488.46        11.83101
488.90        11.70387
489.34        11.38491
489.79        11.39989
490.23        11.70857
490.67        12.05247
491.11        12.31075
491.55        12.33587
491.99        12.18892
492.43        12.22082
492.88        12.45426
493.32        12.64797
493.76        12.76269
494.20         12.8746
494.64        12.98157
495.08        13.06182
495.52        13.13257
495.96        13.23514
496.41         13.3749
496.85        13.51474
497.29        13.65602
497.73        13.84942
498.17        14.06457
498.61        14.20345
499.05        14.25261
499.49        14.24629
499.93        14.22293
500.37        14.25879
500.82        14.35999
501.26        14.45111
501.70        14.52926
502.14         14.6565
502.58        14.81752
503.02         14.9467
503.46        15.03316
503.90        15.09685
504.34        15.14028
504.78        15.16797
505.22        15.18668
505.66        15.19107
506.10        15.18879
506.54        15.22784
506.98        15.31983
507.42        15.39406
507.86        15.41679
508.30        15.66805
508.74        15.59228
509.18        15.63771
509.62        15.65957
510.06        15.70463
510.50        15.77593
510.94        15.86732
511.38        15.96083
511.82        16.01141
512.26        16.01188
512.70        15.97836
513.14         15.9341
513.58        15.91549
514.02        15.93213
514.46         15.9706
514.90        16.02077
515.34        16.06544
515.78        16.09718
516.22        16.12395
516.66        16.13826
517.10        16.12746
517.54        16.09312
517.98        16.03827
518.42        15.98683
518.86        15.97811
519.30        16.01846
519.74        16.09546
520.18        16.17884
520.62        16.21823
521.06        16.19979
521.50         16.1375
521.93        16.05435
522.37        15.98951
522.81        15.95311
523.25         15.9328
523.69        15.91528
524.13        15.87956
524.57        15.82168
525.01        15.75397
525.45        15.68506
525.89        15.62622
526.32        15.58171
526.76        15.54871
527.20        15.52931
527.64         15.5288
528.08        15.54414
528.52        15.57069
528.96        15.59429
529.40        15.59313
529.83        15.55934
530.27        15.50123
530.71        15.42832
531.15        15.35822
531.59        15.29733
532.03        15.24408
532.46        15.19417
532.90        15.14124
533.34        15.08713
533.78        15.03826
534.22        15.00199
534.66        14.98686
535.09        14.98959
535.53        15.00526
535.97        15.02545
536.41        15.02643
536.85        15.00201
537.28        14.99883
537.72        15.01024
538.16        14.93105
538.60        14.81193
539.04        14.85999
539.47        15.04408
539.91        15.14233
540.35        15.13997
540.79        15.16504
541.22        15.22295
541.66        15.27557
542.10        15.32681
542.54        15.36556
542.97        15.40326
543.41        15.51987
543.85        15.69138
544.29        15.79607
544.72        15.83871
545.16        15.93924
545.60         16.0988
546.04        16.25352
546.47        16.39461
546.91        16.53759
547.35        16.67824
547.79         16.8159
548.22         16.9565
548.66        17.10922
549.10        17.28074
549.53        17.50883
549.97         17.7601
550.41        17.93816
550.84        18.02656
551.28        18.07304
551.72        18.10655
552.15        18.15914
552.59         18.2543
553.03        18.37339
553.46        18.50723
553.90        18.66712
554.34        18.83836
554.77        19.00084
555.21        19.14912
555.65        19.28883
556.08        19.41388
556.52         19.5182
556.96        19.60273
557.39        19.68929
557.83        19.78897
558.27        19.86958
558.70        19.94007
559.14        20.06167
559.57        20.21151
560.01        20.30395
560.45         20.3405
560.88        20.39691
561.32        20.48734
561.75        20.55569
562.19        20.61673
562.63        20.67731
563.06        20.73314
563.50        20.83756
563.93        20.96333
564.37        20.95674
564.80        20.86488
565.24        20.96666
565.68        21.22426
566.11        21.37194
566.55        21.40239
566.98          21.448
567.42        21.52629
567.85        21.66288
568.29        21.71313
568.72        21.81814
569.16        21.95838
569.60        22.10487
570.03        22.24357
570.47        22.58121
570.90        22.61961
571.34        22.90333
571.77         23.1014
572.21        22.97946
572.64        23.16843
573.08        23.00758
573.51        23.47134
573.95        23.62056
574.38        23.69091
574.82        23.60789
