SpectraSmart Spectrum 2.9.0.0
--------- Device Information -----------
Spectrum Name :  反射率_0
Saving Time :  2024/05/03 20:46:08
Spectro-Module Model Name : SE2030-DUVN
Spectro-Module Serial Number : OS361AC55029948
Wavelength Start : 200
Wavelength End : 1025
Wavelength Unit : Wavelength(nm)
Spectrum Unit : Reflectance(%)
-----------Spectrum Setting ------------
Integration Time : 20ms
Average : 10
Boxcar : 0
Background removal :  enabled
linearity correction :  enabled
SC :  disabled
Intensity correction :  disabled
DWT denoise :  enabled
savitzky-golay :  disabled
FFT :  disabled
Running average :  disabled
Kalman :  disabled
High pass :  disabled
---------------BEGIN--------------------
Wavelength(nm)             Reflectance(%)
200.29               0
200.75        75.14032
201.21        132.4387
201.67        -3807.25
202.13       -118.6518
202.58       -57.74625
203.04       -34.50708
203.50       -24.57676
203.96       -26.79101
204.42       -45.76559
204.88       -128.0617
205.34        2869.122
205.80        285.1471
206.26        289.3597
206.72        51417.31
207.18       -121.8787
207.64       -63.99689
208.10       -77.79011
208.55       -180.4958
209.01       -1233.378
209.47       -1628.767
209.93       -191.0103
210.39       -50.46318
210.85        -12.6676
211.31       0.6404868
211.77        5.905821
212.23        7.512114
212.69        3.898725
213.14       -4.474306
213.60       -5.615471
214.06       -2.728402
214.52       -2.380212
214.98       -6.384262
215.44       -18.09456
215.90       -63.74694
216.36        530.3074
216.81        92.01107
217.27        53.80023
217.73        13.37352
218.19       -165.1199
218.65       -4906.403
219.11       -306.1415
219.57       -29.72326
220.02        27.64291
220.48        72.15353
220.94       -34.03773
221.40        11.71669
221.86        20.21286
222.32         23.2569
222.77        24.61486
223.23        26.13892
223.69        28.03406
224.15        28.68402
224.61        27.58606
225.06        26.00042
225.52        25.61997
225.98        27.44631
226.44        31.69214
226.90         38.4002
227.36        47.73722
227.81        56.78454
228.27        61.64104
228.73        62.87314
229.19        60.85413
229.65        56.19927
230.10         50.2145
230.56        44.13482
231.02        39.31253
231.48        37.33126
231.93        37.88113
232.39        40.13437
232.85        43.00364
233.31         45.0562
233.77        45.93329
234.22        45.95789
234.68        45.70574
235.14        46.12824
235.60        47.49317
236.05        49.62433
236.51        51.56843
236.97        51.67202
237.43        49.59139
237.88        46.26741
238.34        43.19086
238.80        41.88545
239.26        42.77379
239.71        48.23438
240.17         56.3382
240.63        67.13845
241.08        73.18101
241.54        70.98354
242.00            64.8
242.46        61.41351
242.91        62.33677
243.37        66.61104
243.83        74.18757
244.28        77.38067
244.74          64.436
245.20        40.96333
245.66        20.84456
246.11        11.07981
246.57        9.482675
247.03        13.00478
247.48        15.62756
247.94        10.63518
248.40       -1.909804
248.85        -20.9403
249.31        -39.5599
249.77       -41.90467
250.22        -27.2904
250.68       -6.523613
251.14        11.89969
251.59        23.22888
252.05        29.06023
252.51        32.11536
252.96        33.84314
253.42         37.5477
253.88        44.16438
254.33        50.28004
254.79        54.53082
255.25        56.43233
255.70         56.7112
256.16        56.80024
256.62        57.14318
257.07        58.07558
257.53        59.72313
257.99        61.37262
258.44        62.23976
258.90        62.00981
259.35        60.47549
259.81        58.62539
260.27        56.65575
260.72        54.79195
261.18        53.46657
261.63        52.36287
262.09        51.65089
262.55        51.14769
263.00        50.70745
263.46        50.37261
263.91        50.08865
264.37        50.06402
264.83        50.18966
265.28        50.35424
265.74        50.35183
266.19        49.66022
266.65         48.4095
267.11        46.74807
267.56        45.09283
268.02        44.12437
268.47        43.88568
268.93        44.18127
269.38        44.62573
269.84          44.561
270.30        43.84948
270.75        42.72953
271.21        41.56464
271.66        40.76007
272.12        40.41361
272.57        40.31047
273.03        40.30239
273.48        40.19231
273.94        39.91888
274.39        39.56491
274.85        39.10733
275.31        38.39235
275.76        37.44068
276.22        36.37911
276.67        35.41133
277.13        34.94859
277.58        34.93546
278.04        35.25409
278.49        35.55862
278.95        35.37346
279.40        34.58714
279.86        33.49719
280.31        32.31784
280.77        31.44271
281.22        30.86104
281.68        30.49764
282.13        30.23339
282.59        29.98419
283.04        29.69308
283.50        29.42548
283.95        29.16886
284.41        28.93442
284.86        28.70335
285.32        28.49086
285.77        28.27593
286.22        28.10353
286.68        27.98479
287.13        27.87114
287.59        27.78089
288.04        27.67762
288.50        27.57952
288.95        27.48314
289.41         27.3774
289.86        27.19593
290.32        26.96875
290.77        26.69746
291.22        26.49478
291.68        26.51092
292.13        26.75091
292.59        27.19292
293.04         27.6918
293.50        28.02624
293.95        28.13826
294.40        28.10126
294.86        28.08874
295.31         28.3544
295.77         28.9514
296.22        29.79027
296.68        30.70058
297.13        31.39481
297.58        31.78403
298.04        31.98083
298.49        32.10001
298.95        32.35793
299.40        32.79383
299.85        33.33964
300.31        33.97054
300.76        34.62149
301.21        35.26926
301.67        35.93993
302.12        36.56007
302.58        37.03587
303.03        37.33932
303.48        37.50616
303.94        37.66575
304.39        37.95409
304.84         38.4212
305.30        39.01833
305.75        39.62548
306.20        40.08931
306.66        40.38097
307.11        40.52338
307.57        40.60849
308.02        40.69666
308.47        40.83381
308.93        41.00024
309.38        41.15056
309.83        41.26562
310.29        41.33849
310.74        41.37066
311.19        41.38313
311.65        41.39943
312.10        41.41264
312.55        41.41363
313.00        41.37596
313.46        41.26525
313.91        41.06765
314.36        40.81844
314.82         40.5592
315.27           40.34
315.72         40.1854
316.18         40.0788
316.63        40.01163
317.08        39.97519
317.53        39.95537
317.99        39.94504
318.44        39.92174
318.89         39.8276
319.35        39.65256
319.80         39.4151
320.25        39.14965
320.70        38.91973
321.16        38.73573
321.61        38.58496
322.06        38.44711
322.51        38.29284
322.97        38.10541
323.42        37.90166
323.87        37.67026
324.32        37.39636
324.78        37.07868
325.23        36.73897
325.68        36.39367
326.13        36.07718
326.59        35.79498
327.04        35.56437
327.49        35.38687
327.94        35.27428
328.39        35.21938
328.85        35.20065
329.30        35.20073
329.75         35.1506
330.20        35.02881
330.66        34.83498
331.11        34.60172
331.56        34.34527
332.01        34.08279
332.46        33.81466
332.92        33.55002
333.37        33.34443
333.82        33.19663
334.27        33.10496
334.72        33.05567
335.17        33.01819
335.63        32.96794
336.08        32.92401
336.53        32.87119
336.98        32.80496
337.43         32.7215
337.88        32.61471
338.34        32.48569
338.79        32.34529
339.24        32.19973
339.69        32.06071
340.14        31.92758
340.59        31.79593
341.05        31.67063
341.50        31.55798
341.95        31.48616
342.40         31.5035
342.85        31.60899
343.30        31.77642
343.75        31.94213
344.20        32.00674
344.66        31.95362
345.11        31.80763
345.56        31.61948
346.01        31.46634
346.46        31.37755
346.91        31.33373
347.36         31.3313
347.81        31.36491
348.26         31.4235
348.72        31.50667
349.17        31.58928
349.62        31.63625
350.07        31.63734
350.52        31.60081
350.97        31.52637
351.42        31.42082
351.87        31.28974
352.32        31.12547
352.77        30.96003
353.22        30.84594
353.67        30.78875
354.13        30.78448
354.58         30.7597
355.03         30.6194
355.48        30.35784
355.93        30.02418
356.38        29.69632
356.83        29.49664
357.28        29.45127
357.73        29.50537
358.18        29.62349
358.63        29.74777
359.08        29.84088
359.53        29.91604
359.98        29.91166
360.43        29.73526
360.88        29.38487
361.33        28.89004
361.78        28.37434
362.23        28.03092
362.68        27.90415
363.13        27.95041
363.58        28.05023
364.03        28.00557
364.48        27.76942
364.93        27.40002
365.38        27.01942
365.83        26.81405
366.28        26.82202
366.73        26.98106
367.18        27.15833
367.63        27.14493
368.08        26.89207
368.53        26.46687
368.98        26.01248
369.43        25.74336
369.88        25.70724
370.33        25.84172
370.78        26.01031
371.23        25.98483
371.68        25.70918
372.13        25.26085
372.58         24.7879
373.03         24.5117
373.48        24.48036
373.93        24.62033
374.38        24.80345
374.83        24.81974
375.28        24.61472
375.72         24.2564
376.17        23.87245
376.62        23.60488
377.07         23.4871
377.52        23.46383
377.97        23.47931
378.42        23.44883
378.87        23.34849
379.32        23.21603
379.77        23.07435
380.22        22.94873
380.67        22.84499
381.11        22.74921
381.56        22.65655
382.01        22.58377
382.46        22.53223
382.91        22.50302
383.36        22.46885
383.81        22.38474
384.26        22.24477
384.71        22.06224
385.15        21.87351
385.60        21.75689
386.05        21.72032
386.50        21.73607
386.95        21.76217
387.40        21.73385
387.85        21.63902
388.29        21.49644
388.74        21.34734
389.19        21.19944
389.64        21.06057
390.09        20.92114
390.54        20.80726
390.98        20.74266
391.43        20.73584
391.88        20.81312
392.33        20.91643
392.78         20.8578
393.23        20.68154
393.67        20.61979
394.12        20.67763
394.57        20.64766
395.02        20.52612
395.47        20.41948
395.91        20.35126
396.36        20.29599
396.81        20.27242
397.26        20.29814
397.71        20.32597
398.15        20.30951
398.60        20.26967
399.05        20.09656
399.50        19.89065
399.95        20.02594
400.39        20.41845
400.84        20.46677
401.29        20.16406
401.74        19.99407
402.18        19.97311
402.63        19.82363
403.08        19.61244
403.53        19.42029
403.97         19.5442
404.42        19.69072
404.87        19.86365
405.32         19.9313
405.76        19.86073
406.21        19.69992
406.66        19.50114
407.11        19.35218
407.55        19.28283
408.00        19.25982
408.45        19.25879
408.90        19.23448
409.34        19.17097
409.79        19.08633
410.24        19.00236
410.68        18.94241
411.13        18.91287
411.58        18.90435
412.03        18.89177
412.47        18.83928
412.92        18.73866
413.37        18.61139
413.81        18.49438
414.26        18.45863
414.71        18.50462
415.15        18.61909
415.60        18.74821
416.05         18.8167
416.49         18.7995
416.94        18.72294
417.39        18.62397
417.83        18.55693
418.28        18.53736
418.73        18.54122
419.17        18.56216
419.62        18.58131
420.07        18.59209
420.51        18.59811
420.96        18.59005
421.41        18.53663
421.85        18.43105
422.30        18.29654
422.74        18.15736
423.19        18.10294
423.64        18.12952
424.08        18.19164
424.53        18.24921
424.98        18.30782
425.42        18.36541
425.87        18.36483
426.31        18.33324
426.76        18.42538
427.21         18.5936
427.65        18.56681
428.10        18.39965
428.54        18.37026
428.99        18.50133
429.44        18.75169
429.88        18.97286
430.33        18.83048
430.77        18.40854
431.22        18.15096
431.66        18.13267
432.11         18.2473
432.56        18.43957
433.00         18.6763
433.45        18.75886
433.89         18.6295
434.34         17.7609
434.78        17.70914
435.23        18.31526
435.67        18.49468
436.12        18.24634
436.57        18.17807
437.01        18.31043
437.46        18.34348
437.90        18.26987
438.35        18.18546
438.79         18.1039
439.24        18.02964
439.68        17.98182
440.13        18.00146
440.57        18.06601
441.02        18.11664
441.46        18.13496
441.91        18.12508
442.35        18.09057
442.80        18.16841
443.24          18.303
443.69        18.28519
444.13        18.13222
444.58        18.06513
445.02        18.09634
445.47        18.10385
445.91        18.08866
446.36        18.11909
446.80        18.18815
447.24        18.28043
447.69        18.36878
448.13        18.40883
448.58        18.39301
449.02         18.3301
449.47        18.25288
449.91        18.20098
450.36        18.19052
450.80        18.20761
451.25         18.2317
451.69        18.22139
452.13        18.17056
452.58        18.09405
453.02        18.01735
453.47        17.98841
453.91        18.01418
454.36        18.07645
454.80        18.13719
455.24        18.16491
455.69        18.15762
456.13        18.06584
456.58        17.92024
457.02         17.9782
457.46        17.95897
457.91        17.90879
458.35        17.76658
458.79        17.75441
459.24        17.84846
459.68        17.83707
460.13        17.74189
460.57        17.68562
461.01        17.68314
461.46        17.66086
461.90        17.61641
462.34        17.57057
462.79        17.52241
463.23        17.46682
463.68        17.43008
464.12        17.43822
464.56        17.48886
465.01        17.61858
465.45        17.75545
465.89         17.7443
466.34        17.62665
466.78        17.59664
467.22        17.66984
467.67        17.71249
468.11        17.71295
468.55        17.68056
468.99        17.63294
469.44        17.62063
469.88        17.64972
470.32        17.67759
470.77         17.6941
471.21        17.71032
471.65        17.72141
472.10        17.72626
472.54        17.72472
472.98        17.72662
473.42        17.73545
473.87        17.75503
474.31        17.77602
474.75        17.80187
475.20        17.83711
475.64        17.86835
476.08        17.89453
476.52         17.9395
476.97        18.00743
477.41        18.04552
477.85        18.02381
478.29        18.23974
478.74        18.08519
479.18        18.18276
479.62        18.33605
480.06        18.43091
480.50        18.45218
480.95        18.47993
481.39         18.5167
481.83        18.53995
482.27        18.56704
482.72        18.63055
483.16        18.71097
483.60        18.78981
484.04        18.87013
484.48        18.86178
484.93        18.88357
485.37        19.21903
485.81        19.80064
486.25        20.11167
486.69        20.05202
487.14        19.83806
487.58        20.11052
488.02        19.81308
488.46        20.15742
488.90        19.99237
489.34        19.97218
489.79         20.0132
490.23        20.21283
490.67        20.63792
491.11         21.1264
491.55         21.1351
491.99        20.75366
492.43        20.68552
492.88        20.97793
493.32         21.2226
493.76        21.36272
494.20        21.51525
494.64        21.67096
495.08        21.80172
495.52        21.91829
495.96         22.0478
496.41        22.19328
496.85        22.32052
497.29        22.44066
497.73         22.6246
498.17        22.84234
498.61        22.98772
499.05         23.0501
499.49        23.04665
499.93        23.03406
500.37        23.16332
500.82        23.40609
501.26        23.56066
501.70        23.61017
502.14        23.67946
502.58        23.78979
503.02        23.91101
503.46        24.04425
503.90        24.19707
504.34        24.33958
504.78        24.42214
505.22        24.43699
505.66        24.39463
506.10        24.32247
506.54        24.32033
506.98        24.41553
507.42        24.48596
507.86        24.48046
508.30         24.8488
508.74        24.71058
509.18        24.78056
509.62        24.82011
510.06        24.88593
510.50        24.97885
510.94        25.09033
511.38        25.20816
511.82         25.2892
512.26         25.3262
512.70        25.33554
513.14        25.32541
513.58        25.30922
514.02        25.29355
514.46        25.26998
514.90        25.25702
515.34        25.28416
515.78        25.35395
516.22        25.46349
516.66        25.56542
517.10        25.58277
517.54        25.50529
517.98        25.35624
518.42         25.2078
518.86        25.17636
519.30        25.28338
519.74        25.48863
520.18        25.71244
520.62        25.82454
521.06         25.7894
521.50        25.64778
521.93        25.45671
522.37        25.31168
522.81        25.23988
523.25        25.21202
523.69        25.20385
524.13        25.17726
524.57        25.12268
525.01        25.06298
525.45        25.00534
525.89        24.95612
526.32        24.91775
526.76        24.88406
527.20        24.86619
527.64        24.88725
528.08        24.94485
528.52        25.02887
528.96        25.10108
529.40        25.10168
529.83        25.01613
530.27        24.86883
530.71        24.70228
531.15        24.58559
531.59        24.53747
532.03         24.5433
532.46        24.56815
532.90         24.5558
533.34        24.49538
533.78        24.40822
534.22        24.32966
534.66        24.30966
535.09        24.35027
535.53         24.4324
535.97        24.51836
536.41        24.53164
536.85        24.45496
537.28        24.37903
537.72        24.32125
538.16        24.15775
538.60        23.97935
539.04        24.10325
539.47        24.45344
539.91        24.63003
540.35        24.59964
540.79        24.58835
541.22        24.61711
541.66        24.64374
542.10        24.68317
542.54        24.70712
542.97        24.74447
543.41        24.93986
543.85        25.25127
544.29        25.47591
544.72        25.58543
545.16        25.71734
545.60         25.8644
546.04        25.94054
546.47        25.97392
546.91           26.06
547.35         26.2122
547.79        26.41261
548.22         26.6382
548.66        26.85144
549.10        27.04955
549.53        27.30611
549.97        27.59381
550.41        27.80535
550.84        27.92333
551.28        28.00185
551.72        28.05569
552.15        28.09012
552.59        28.13349
553.03        28.17875
553.46        28.23453
553.90        28.34907
554.34        28.51158
554.77        28.68263
555.21        28.85689
555.65         29.0474
556.08         29.2405
556.52        29.42234
556.96         29.5757
557.39        29.70462
557.83        29.81713
558.27        29.86963
558.70        29.88747
559.14        29.98414
559.57        30.13551
560.01        30.21522
560.45        30.22016
560.88        30.25261
561.32        30.33102
561.75        30.37426
562.19        30.42196
562.63        30.50448
563.06        30.61393
563.50        30.83937
563.93        31.10044
564.37        31.05778
564.80        30.79716
565.24        30.85969
565.68        31.20309
566.11        31.37096
566.55        31.35983
566.98        31.41085
567.42        31.53608
567.85        31.73041
568.29        31.78284
568.72        31.89084
569.16         32.0295
569.60        32.20996
570.03         32.4229
570.47        32.68974
570.90         32.8988
571.34        33.06484
571.77        33.49773
572.21        33.27484
572.64        33.44633
573.08        33.38138
573.51        33.82571
573.95        33.89347
574.38        33.83343
574.82        33.63419
