SpectraSmart Spectrum 2.9.0.0
--------- Device Information -----------
Spectrum Name :  反射率_0
Saving Time :  2024/05/03 20:42:33
Spectro-Module Model Name : SE2030-DUVN
Spectro-Module Serial Number : OS361AC55029948
Wavelength Start : 200
Wavelength End : 1025
Wavelength Unit : Wavelength(nm)
Spectrum Unit : Reflectance(%)
-----------Spectrum Setting ------------
Integration Time : 20ms
Average : 10
Boxcar : 0
Background removal :  enabled
linearity correction :  enabled
SC :  disabled
Intensity correction :  disabled
DWT denoise :  enabled
savitzky-golay :  disabled
FFT :  disabled
Running average :  disabled
Kalman :  disabled
High pass :  disabled
---------------BEGIN--------------------
Wavelength(nm)             Reflectance(%)
200.29               0
200.75        46.85542
201.21         102.378
201.67       -3395.211
202.13       -105.8606
202.58       -42.29604
203.04       -11.91403
203.50        6.181239
203.96        13.00134
204.42        8.102212
204.88       -27.46475
205.34        1372.148
205.80        173.0985
206.26        189.5826
206.72        33537.13
207.18       -71.56523
207.64       -31.67058
208.10       -36.24657
208.55       -85.49841
209.01       -567.1508
209.47       -586.2076
209.93        -21.8362
210.39        25.13698
210.85        36.69582
211.31         42.0546
211.77        46.87739
212.23         55.6936
212.69        71.62046
213.14        60.64286
213.60        19.11263
214.06        3.475619
214.52      -0.3814844
214.98       -1.101241
215.44      -0.5652643
215.90        2.749177
216.36       -70.84507
216.81       -30.69191
217.27       -48.94616
217.73       -111.7011
218.19       -451.9333
218.65       -8429.754
219.11       -459.9827
219.57       -49.73219
220.02        19.74553
220.48        30.58859
220.94        70.27172
221.40        61.56472
221.86        62.60598
222.32        65.08848
222.77        69.19846
223.23        77.17743
223.69         88.4802
224.15        91.87166
224.61        81.94841
225.06        68.14132
225.52        59.99267
225.98        60.73644
226.44        69.38092
226.90        85.38652
227.36        106.3491
227.81        119.9273
228.27        118.0867
228.73        107.2989
229.19        94.22488
229.65        83.93186
230.10        76.84938
230.56        71.88771
231.02        68.83145
231.48        67.95468
231.93         68.6805
232.39        70.79973
232.85        73.24636
233.31        74.58447
233.77        74.51284
234.22        73.30242
234.68         71.6597
235.14        70.85049
235.60        71.25909
236.05        72.68919
236.51        74.20522
236.97        74.28166
237.43        72.47739
237.88        69.49931
238.34        66.54783
238.80        64.78712
239.26        64.37937
239.71        66.85351
240.17        69.77481
240.63        71.28597
241.08        66.72737
241.54        56.64719
242.00        47.95092
242.46         45.8637
242.91        51.03542
243.37        65.50572
243.83        91.95071
244.28        115.1261
244.74        103.7344
245.20        62.11334
245.66         18.2231
246.11       -6.860191
246.57       -14.97781
247.03       -13.30618
247.48       -7.842363
247.94       -4.657666
248.40       -4.356437
248.85       -5.534595
249.31       -5.850494
249.77       -2.235368
250.22        4.406265
250.68        11.14944
251.14        16.56639
251.59         20.5799
252.05        24.36436
252.51        29.37711
252.96        37.01978
253.42        47.46173
253.88        57.07063
254.33        62.38127
254.79        63.76913
255.25        62.61968
255.70        60.45593
256.16        58.76705
256.62        57.26593
257.07        55.71291
257.53        54.47067
257.99        53.18031
258.44        52.10818
258.90        52.09054
259.35        52.53724
259.81        53.39635
260.27        53.80431
260.72        52.93734
261.18        51.36072
261.63          49.368
262.09        47.69852
262.55        46.74237
263.00        46.37283
263.46        46.39126
263.91        46.47137
264.37        46.43487
264.83        46.16906
265.28        45.77571
265.74        45.30378
266.19        44.57418
266.65        43.71107
267.11        42.67638
267.56        41.69949
268.02        41.20583
268.47        41.18457
268.93        41.55171
269.38        41.92685
269.84        41.65792
270.30        40.66373
270.75        39.18814
271.21        37.77155
271.66        37.08875
272.12        37.24863
272.57        37.94192
273.03        38.76971
273.48        39.10472
273.94        38.78354
274.39        38.05253
274.85        37.07439
275.31        35.97334
275.76        34.85841
276.22        33.75873
276.67        32.87302
277.13        32.60297
277.58        32.87104
278.04        33.56851
278.49        34.25103
278.95        34.25861
279.40        33.44979
279.86        32.18055
280.31        30.79515
280.77        29.85711
281.22        29.37678
281.68        29.20897
282.13          29.151
282.59        28.99132
283.04        28.64116
283.50        28.20895
283.95        27.73099
284.41        27.28232
284.86        26.86446
285.32        26.47383
285.77         26.0727
286.22        25.67796
286.68        25.30866
287.13        24.95251
287.59        24.65059
288.04        24.40022
288.50        24.21558
288.95        24.06142
289.41        23.92913
289.86        23.76368
290.32        23.57468
290.77        23.35793
291.22        23.13882
291.68        22.94217
292.13        22.76586
292.59         22.6262
293.04        22.51565
293.50        22.44538
293.95        22.41561
294.40        22.43304
294.86        22.52379
295.31        22.71848
295.77        23.01627
296.22        23.39693
296.68         23.8075
297.13        24.15825
297.58        24.42017
298.04        24.63635
298.49        24.82896
298.95        25.06727
299.40          25.363
299.85        25.70122
300.31        26.12217
300.76         26.6614
301.21        27.31646
301.67        28.06786
302.12        28.80304
302.58        29.36431
303.03        29.70597
303.48        29.87966
303.94        30.01797
304.39        30.27427
304.84         30.6996
305.30        31.23799
305.75        31.78266
306.20        32.19448
306.66        32.45057
307.11        32.58879
307.57        32.68438
308.02        32.78375
308.47        32.92838
308.93        33.09785
309.38        33.28276
309.83        33.51176
310.29        33.77471
310.74        34.04738
311.19        34.28243
311.65        34.39862
312.10        34.36679
312.55        34.21102
313.00        33.96677
313.46        33.69499
313.91        33.41565
314.36        33.14275
314.82        32.88921
315.27        32.65912
315.72         32.4643
316.18        32.30565
316.63        32.20395
317.08        32.18924
317.53        32.25513
317.99        32.38299
318.44        32.50431
318.89        32.49413
319.35        32.32501
319.80         32.0271
320.25        31.69438
320.70         31.4866
321.16         31.4312
321.61        31.48342
322.06        31.54403
322.51        31.45026
322.97        31.16108
323.42        30.74663
323.87        30.28225
324.32        29.89052
324.78        29.61076
325.23        29.41329
325.68        29.27908
326.13         29.1815
326.59         29.0918
327.04        29.03839
327.49        28.98402
327.94         28.8734
328.39        28.69208
328.85        28.43549
329.30        28.15595
329.75        27.92244
330.20        27.75808
330.66        27.63896
331.11        27.54302
331.56        27.39197
332.01         27.1702
332.46        26.90545
332.92        26.63249
333.37        26.44116
333.82        26.34462
334.27        26.32117
334.72        26.34117
335.17        26.35481
335.63        26.33202
336.08        26.29628
336.53        26.24807
336.98        26.20176
337.43        26.16071
337.88        26.11727
338.34        26.05792
338.79        25.96805
339.24        25.84917
339.69        25.71612
340.14        25.59417
340.59        25.52191
341.05        25.50711
341.50        25.53644
341.95        25.59224
342.40        25.64914
342.85        25.69378
343.30        25.73163
343.75        25.74436
344.20        25.70542
344.66        25.62291
345.11        25.50047
345.56        25.38046
346.01        25.32714
346.46        25.35301
346.91        25.43536
347.36        25.54024
347.81        25.61294
348.26        25.63479
348.72        25.62257
349.17        25.57619
349.62         25.5046
350.07        25.41487
350.52        25.30243
350.97        25.18221
351.42        25.08076
351.87        25.00163
352.32        24.93793
352.77        24.87114
353.22        24.76972
353.67        24.62793
354.13        24.46528
354.58        24.28515
355.03        24.11207
355.48        23.95791
355.93        23.82364
356.38        23.71053
356.83        23.62086
357.28        23.55088
357.73        23.49105
358.18        23.44643
358.63        23.42449
359.08        23.41905
359.53         23.4258
359.98        23.39921
360.43        23.27211
360.88         23.0365
361.33        22.71082
361.78        22.37183
362.23        22.13828
362.68        22.03299
363.13        22.02484
363.58        22.02491
364.03        21.88905
364.48        21.59102
364.93        21.18339
365.38         20.7672
365.83        20.49528
366.28        20.40131
366.73        20.43347
367.18        20.50789
367.63        20.49054
368.08        20.34235
368.53        20.10584
368.98        19.83807
369.43        19.62216
369.88        19.48103
370.33        19.38824
370.78        19.30763
371.23        19.18547
371.68        19.00963
372.13        18.80122
372.58        18.60234
373.03        18.47107
373.48        18.41409
373.93        18.40786
374.38        18.39802
374.83        18.29951
375.28        18.09484
375.72        17.80867
376.17         17.5132
376.62        17.28005
377.07        17.12529
377.52        17.02495
377.97        16.94815
378.42        16.84702
378.87        16.71219
379.32        16.56633
379.77        16.42856
380.22        16.32091
380.67        16.24564
381.11        16.19181
381.56        16.14571
382.01        16.10122
382.46        16.05366
382.91        16.00574
383.36        15.95139
383.81        15.87899
384.26        15.78929
384.71        15.68974
385.15        15.58731
385.60        15.51088
386.05        15.46149
386.50        15.42873
386.95        15.41592
387.40        15.42594
387.85        15.45407
388.29        15.49262
388.74        15.52632
389.19        15.49765
389.64        15.40114
390.09        15.24866
390.54        15.09936
390.98        15.03496
391.43        15.07481
391.88        15.21624
392.33        15.37774
392.78        15.36468
393.23        15.20177
393.67        15.08172
394.12         15.0434
394.57        14.98609
395.02        14.91729
395.47        14.89531
395.91        14.90706
396.36        14.88324
396.81         14.8251
397.26        14.76541
397.71        14.69576
398.15        14.61866
398.60        14.56108
399.05        14.43472
399.50         14.3007
399.95          14.413
400.39        14.70836
400.84        14.75836
401.29        14.56799
401.74         14.5013
402.18        14.57171
402.63        14.57042
403.08        14.52309
403.53        14.45493
403.97         14.5806
404.42         14.6916
404.87        14.81234
405.32        14.88028
405.76        14.87846
406.21        14.82775
406.66        14.75596
407.11        14.71153
407.55        14.71082
408.00        14.73872
408.45         14.7678
408.90        14.74632
409.34        14.66495
409.79        14.54507
410.24         14.4358
410.68        14.40329
411.13        14.46063
411.58        14.58706
412.03        14.73134
412.47        14.80333
412.92        14.77266
413.37        14.67133
413.81        14.55133
414.26        14.50264
414.71        14.53715
415.15        14.63621
415.60        14.75029
416.05         14.8073
416.49        14.78508
416.94        14.71171
417.39        14.63109
417.83        14.60497
418.28        14.64865
418.73         14.7381
419.17        14.84513
419.62        14.91564
420.07         14.9334
420.51        14.91098
420.96        14.87019
421.41        14.83127
421.85        14.79506
422.30        14.76363
422.74        14.72637
423.19        14.71282
423.64        14.71241
424.08        14.70451
424.53        14.68107
424.98        14.69083
425.42         14.7465
425.87        14.78856
426.31        14.82175
426.76        14.94558
427.21        15.11345
427.65        15.11639
428.10        14.99931
428.54        14.98938
428.99        15.10824
429.44        15.31988
429.88         15.5152
430.33        15.44084
430.77        15.16248
431.22        15.03434
431.66        15.10353
432.11        15.24918
432.56        15.41618
433.00        15.60108
433.45        15.64354
433.89        15.47824
434.34        14.69649
434.78        14.64751
435.23        15.20154
435.67         15.4117
436.12        15.26955
436.57        15.31659
437.01        15.54215
437.46         15.6217
437.90        15.53323
438.35          15.373
438.79        15.20109
439.24        15.09678
439.68        15.09075
440.13        15.19813
440.57        15.34397
441.02        15.38497
441.46        15.29446
441.91        15.12017
442.35        14.93677
442.80          14.952
443.24        15.13388
443.69        15.27303
444.13        15.33117
444.58        15.41043
445.02        15.49358
445.47        15.50092
445.91         15.4512
446.36        15.43076
446.80        15.44762
447.24        15.48044
447.69        15.51444
448.13        15.52801
448.58        15.51762
449.02        15.48903
449.47        15.46269
449.91        15.45702
450.36        15.47945
450.80        15.52128
451.25        15.55984
451.69        15.55334
452.13        15.49746
452.58        15.40679
453.02         15.3161
453.47        15.28782
453.91        15.33229
454.36        15.42749
454.80        15.52814
455.24        15.58572
455.69        15.59204
456.13        15.51004
456.58        15.37409
457.02        15.41692
457.46        15.40216
457.91        15.36731
458.35        15.25431
458.79        15.24555
459.24        15.32002
459.68        15.29836
460.13        15.21061
460.57        15.17758
461.01        15.21344
461.46        15.24822
461.90        15.26141
462.34        15.24132
462.79        15.17958
463.23        15.07897
463.68        14.98255
464.12        14.94626
464.56        14.97843
465.01        15.10347
465.45        15.24066
465.89        15.22792
466.34        15.09776
466.78        15.02669
467.22         15.0511
467.67        15.09727
468.11        15.16261
468.55        15.23738
468.99        15.30557
469.44        15.36393
469.88         15.4054
470.32        15.40766
470.77        15.37767
471.21        15.35231
471.65        15.33859
472.10        15.32603
472.54        15.31843
472.98        15.33101
473.42        15.36352
473.87        15.41749
474.31        15.46656
474.75         15.4834
475.20        15.46715
475.64         15.4193
476.08        15.36485
476.52        15.33462
476.97        15.33449
477.41        15.36906
477.85        15.42005
478.29        15.44898
478.74        15.41329
479.18        15.46497
479.62        15.57764
480.06        15.63713
480.50        15.63656
480.95        15.64188
481.39        15.65785
481.83        15.68557
482.27        15.73453
482.72        15.81547
483.16        15.90994
483.60        15.98994
484.04        16.06172
484.48        16.08117
484.93        16.10146
485.37        16.28888
485.81        16.64491
486.25         16.6521
486.69        16.75432
487.14        16.68015
487.58        17.01718
488.02        16.89919
488.46        16.88565
488.90        16.85147
489.34        16.75392
489.79        16.76748
490.23         16.8427
490.67        17.20334
491.11        17.70219
491.55        17.75947
491.99        17.44518
492.43        17.41232
492.88        17.69664
493.32         17.9075
493.76        18.00785
494.20        18.14001
494.64         18.3015
495.08        18.45446
495.52        18.59353
495.96        18.72254
496.41        18.83886
496.85        18.91224
497.29        18.96696
497.73         19.1061
498.17        19.30016
498.61        19.40513
499.05        19.41202
499.49        19.38064
499.93        19.35971
500.37         19.4485
500.82        19.62734
501.26        19.74628
501.70        19.79207
502.14        19.86431
502.58        19.96911
503.02        20.06233
503.46        20.14331
503.90        20.22674
504.34        20.30587
504.78        20.36926
505.22        20.41703
505.66        20.44592
506.10        20.46387
506.54        20.53073
506.98        20.66089
507.42        20.75823
507.86        20.77616
508.30        21.09285
508.74        20.96284
509.18        20.99105
509.62        20.99209
510.06        21.04285
510.50        21.14887
510.94         21.2966
511.38        21.44943
511.82        21.52607
512.26         21.5111
512.70        21.43294
513.14        21.33023
513.58        21.26335
514.02        21.25078
514.46          21.273
514.90        21.31893
515.34        21.36958
515.78         21.4153
516.22        21.46567
516.66        21.50808
517.10        21.52022
517.54        21.50123
517.98        21.45522
518.42        21.40985
518.86        21.41208
519.30        21.46988
519.74        21.56763
520.18        21.67315
520.62        21.73287
521.06        21.73164
521.50        21.68537
521.93        21.61436
522.37        21.55536
522.81        21.51792
523.25        21.48966
523.69        21.46456
524.13        21.43288
524.57        21.39289
525.01        21.35533
525.45        21.31587
525.89        21.26533
526.32        21.20324
526.76         21.1313
527.20        21.07128
527.64        21.06039
528.08        21.10054
528.52         21.1777
528.96        21.24828
529.40         21.2434
529.83        21.14758
530.27        20.98943
530.71        20.81446
531.15        20.69578
531.59        20.65232
532.03        20.66407
532.46        20.69973
532.90        20.70872
533.34        20.67882
533.78        20.63075
534.22        20.58275
534.66        20.55969
535.09        20.56249
535.53        20.57855
535.97        20.60074
536.41        20.60525
536.85        20.58505
537.28        20.60528
537.72        20.64631
538.16        20.54568
538.60        20.36964
539.04        20.40687
539.47        20.62805
539.91        20.75164
540.35        20.76048
540.79        20.82233
541.22        20.92514
541.66        20.98521
542.10        21.00261
542.54        20.97411
542.97        20.93759
543.41        21.03468
543.85        21.23962
544.29        21.37518
544.72        21.43233
545.16        21.54882
545.60        21.71838
546.04         21.8628
546.47        21.97539
546.91        22.08548
547.35        22.19421
547.79         22.3024
548.22        22.42179
548.66        22.56927
549.10        22.75458
549.53        23.02532
549.97        23.33956
550.41        23.57316
550.84        23.69827
551.28        23.77589
551.72        23.83107
552.15        23.86981
552.59        23.91654
553.03        24.02589
553.46        24.07704
553.90        24.19281
554.34         24.3261
554.77         24.4505
555.21         24.5705
555.65        24.71294
556.08        24.87196
556.52        25.03289
556.96        25.17019
557.39        25.27003
557.83        25.33702
558.27         25.3394
558.70        25.31757
559.14        25.39694
559.57        25.56064
560.01        25.69034
560.45        25.75732
560.88        25.80682
561.32        25.84838
561.75        25.83857
562.19        25.83355
562.63        25.87028
563.06         25.9624
563.50        26.22412
563.93        26.56239
564.37        26.60047
564.80        26.39704
565.24        26.45618
565.68        26.74723
566.11        26.87354
566.55        26.83687
566.98        26.84439
567.42        26.91297
567.85        27.04969
568.29        27.07844
568.72        27.16512
569.16        27.28283
569.60        27.43362
570.03        27.60954
570.47        27.81145
570.90        28.00859
571.34        28.13112
571.77        28.51462
572.21        28.34248
572.64        28.53333
573.08        28.43968
573.51        28.88975
573.95        29.02385
574.38        29.04132
574.82        28.95772
