SpectraSmart Spectrum 2.9.0.0
--------- Device Information -----------
Spectrum Name :  反射率_0
Saving Time :  2024/05/03 20:55:25
Spectro-Module Model Name : SE2030-DUVN
Spectro-Module Serial Number : OS361AC55029948
Wavelength Start : 200
Wavelength End : 1025
Wavelength Unit : Wavelength(nm)
Spectrum Unit : Reflectance(%)
-----------Spectrum Setting ------------
Integration Time : 20ms
Average : 10
Boxcar : 0
Background removal :  enabled
linearity correction :  enabled
SC :  disabled
Intensity correction :  disabled
DWT denoise :  enabled
savitzky-golay :  disabled
FFT :  disabled
Running average :  disabled
Kalman :  disabled
High pass :  disabled
---------------BEGIN--------------------
Wavelength(nm)             Reflectance(%)
200.29               0
200.75        41.98186
201.21        82.83666
201.67       -2510.514
202.13       -76.78304
202.58       -33.72389
203.04       -15.35324
203.50       -6.493921
203.96       -7.507869
204.42       -22.06189
204.88       -85.04688
205.34        2224.508
205.80        237.5051
206.26        249.7172
206.72        45637.52
207.18       -106.0512
207.64       -43.80071
208.10        -31.3232
208.55       -36.10739
209.01       -129.6223
209.47       -61.54161
209.93        10.64404
210.39        11.09059
210.85        11.01836
211.31        14.14179
211.77        21.45676
212.23        39.25596
212.69        83.18292
213.14        107.5877
213.60        43.88323
214.06         5.33371
214.52       -10.00982
214.98        -17.2702
215.44       -23.74288
215.90       -40.58142
216.36        145.8726
216.81       0.6714719
217.27       -23.72206
217.73       -73.75558
218.19       -336.1887
218.65       -7076.025
219.11         -478.06
219.57       -99.56403
220.02       -33.38307
220.48       -40.95505
220.94        70.08006
221.40        33.55192
221.86        29.05515
222.32        27.59094
222.77        26.73567
223.23        26.64798
223.69        26.75431
224.15        25.51901
224.61        23.36074
225.06        21.31875
225.52        21.16088
225.98         24.0059
226.44        29.97815
226.90          39.436
227.36        50.85142
227.81        57.04279
228.27        54.00313
228.73        45.80109
229.19        37.17099
229.65         31.6227
230.10        29.00109
230.56         28.1185
231.02        28.09916
231.48        28.28072
231.93         28.4591
232.39        28.82466
232.85        29.42445
233.31        30.31207
233.77        31.44733
234.22        32.69989
234.68        33.83797
235.14        34.49057
235.60        34.53466
236.05        34.06187
236.51        33.22348
236.97         32.5522
237.43        32.28738
237.88        32.55021
238.34        33.10466
238.80        33.44518
239.26        33.44777
239.71        35.36017
240.17        36.11881
240.63        40.01388
241.08        45.77395
241.54        51.18503
242.00        54.57946
242.46        57.09527
242.91        60.08278
243.37        62.88994
243.83        65.82532
244.28        67.47512
244.74        64.11062
245.20        58.02776
245.66        49.21644
246.11        35.22758
246.57        18.57291
247.03        2.244374
247.48       -9.898246
247.94       -15.45344
248.40       -14.80019
248.85       -9.938068
249.31        -1.58559
249.77         6.59177
250.22        11.68398
250.68        14.19205
251.14        16.03619
251.59        19.71982
252.05         26.6939
252.51        38.41915
252.96        54.66277
253.42        67.08165
253.88         67.1711
254.33        57.87767
254.79        48.60995
255.25        45.76596
255.70        47.21476
256.16        50.03587
256.62        52.19653
257.07        52.61034
257.53        52.00828
257.99        50.76504
258.44         49.3766
258.90        48.86405
259.35        48.78692
259.81        49.04356
260.27        48.95045
260.72        47.88073
261.18        46.33212
261.63        44.54821
262.09        43.05647
262.55        42.06178
263.00         41.4493
263.46        41.06214
263.91        40.76398
264.37        40.62307
264.83        40.52252
265.28        40.43949
265.74        40.18246
266.19        39.27773
266.65        37.85049
267.11        36.05324
267.56        34.31353
268.02        33.30504
268.47        33.08266
268.93        33.44703
269.38        34.01777
269.84        34.13866
270.30        33.64977
270.75        32.76167
271.21        31.81169
271.66        31.19527
272.12        31.00392
272.57        31.04538
273.03        31.13066
273.48        31.00674
273.94        30.61109
274.39        30.04841
274.85        29.41703
275.31        28.75419
275.76        28.09058
276.22        27.46526
276.67        26.90581
277.13        26.55342
277.58        26.34812
278.04        26.26114
278.49        26.15518
278.95        25.87933
279.40        25.38577
279.86        24.81081
280.31        24.18656
280.77        23.65241
281.22        23.17693
281.68        22.75881
282.13        22.38617
282.59        22.10757
283.04        21.90986
283.50        21.80563
283.95        21.72668
284.41        21.58952
284.86        21.37336
285.32         21.1285
285.77        20.91265
286.22        20.86912
286.68        21.01574
287.13        21.26287
287.59        21.54103
288.04        21.71116
288.50        21.76117
288.95        21.71862
289.41        21.62259
289.86        21.49238
290.32        21.37225
290.77        21.24248
291.22        21.16135
291.68        21.20409
292.13        21.37445
292.59        21.68422
293.04        22.05778
293.50        22.37944
293.95        22.61417
294.40        22.79416
294.86        23.02389
295.31        23.46395
295.77        24.13992
296.22        24.98609
296.68        25.86323
297.13        26.53679
297.58        26.93312
298.04        27.14111
298.49        27.25615
298.95        27.46063
299.40        27.79526
299.85         28.2141
300.31        28.71275
300.76        29.25609
301.21        29.83053
301.67        30.45038
302.12        31.04625
302.58        31.52561
303.03        31.85299
303.48        32.05133
303.94        32.22191
304.39        32.46885
304.84        32.83484
305.30        33.28802
305.75         33.7247
306.20         34.0146
306.66        34.14265
307.11         34.1328
307.57        34.09646
308.02        34.13243
308.47        34.28065
308.93        34.50547
309.38         34.7168
309.83        34.81822
310.29        34.78616
310.74        34.64444
311.19        34.45676
311.65        34.31923
312.10        34.24839
312.55         34.2164
313.00        34.16679
313.46        34.01722
313.91        33.74387
314.36        33.39537
314.82        33.04061
315.27        32.77114
315.72         32.6203
316.18        32.56126
316.63         32.5496
317.08        32.51918
317.53        32.44661
317.99        32.34264
318.44         32.2375
318.89        32.16532
319.35        32.13079
319.80        32.11462
320.25        32.07956
320.70        31.97789
321.16        31.79127
321.61        31.53776
322.06        31.24746
322.51        30.97473
322.97        30.73676
323.42        30.53346
323.87        30.33146
324.32        30.07775
324.78        29.76105
325.23        29.41067
325.68        29.07365
326.13        28.83028
326.59        28.68777
327.04        28.63375
327.49        28.60522
327.94        28.50883
328.39         28.3131
328.85        28.03395
329.30        27.71716
329.75        27.41492
330.20        27.15275
330.66        26.90922
331.11        26.69239
331.56        26.47771
332.01        26.26211
332.46        26.06052
332.92        25.87413
333.37        25.73238
333.82        25.62796
334.27        25.55047
334.72        25.49369
335.17         25.4506
335.63         25.4042
336.08        25.36451
336.53        25.30823
336.98        25.21203
337.43         25.0718
337.88        24.89518
338.34        24.70084
338.79        24.52255
339.24        24.37413
339.69        24.25681
340.14        24.16361
340.59        24.08083
341.05        24.00305
341.50        23.93185
341.95        23.88033
342.40        23.87279
342.85        23.90687
343.30         23.9702
343.75        24.01562
344.20         23.9708
344.66         23.8338
345.11        23.62842
345.56        23.41933
346.01        23.30371
346.46         23.3043
346.91        23.38583
347.36        23.50981
347.81        23.61567
348.26        23.67748
348.72         23.7114
349.17        23.70528
349.62        23.64721
350.07        23.54221
350.52        23.39464
350.97        23.23142
351.42        23.09964
351.87        23.01094
352.32        22.95268
352.77        22.91315
353.22        22.86946
353.67        22.81276
354.13        22.75865
354.58        22.68415
355.03        22.57335
355.48        22.42853
355.93        22.25587
356.38           22.09
356.83        21.98693
357.28        21.95555
357.73        21.97758
358.18        22.01298
358.63        21.99519
359.08        21.90744
359.53        21.77098
359.98        21.61375
360.43        21.48166
360.88        21.38558
361.33        21.30466
361.78        21.22992
362.23        21.14729
362.68        21.05153
363.13        20.95582
363.58         20.8435
364.03        20.68749
364.48        20.49037
364.93        20.25978
365.38        20.04927
365.83        19.94007
366.28        19.94372
366.73        20.03704
367.18        20.14218
367.63        20.13248
368.08        19.97782
368.53        19.71188
368.98        19.42056
369.43         19.2366
369.88          19.188
370.33        19.23643
370.78        19.29594
371.23        19.22277
371.68        18.98601
372.13        18.64078
372.58        18.28531
373.03        18.06381
373.48        18.00923
373.93         18.0741
374.38        18.18325
374.83        18.21365
375.28        18.12549
375.72        17.94785
376.17        17.74687
376.62        17.58656
377.07        17.48362
377.52        17.41524
377.97        17.34893
378.42        17.23836
378.87        17.08065
379.32        16.90256
379.77        16.74559
380.22        16.66302
380.67        16.65964
381.11        16.71466
381.56        16.78386
382.01        16.80516
382.46        16.75909
382.91        16.66775
383.36        16.54921
383.81        16.42998
384.26        16.32044
384.71        16.21017
385.15        16.10688
385.60        16.04181
386.05        16.00953
386.50        16.00144
386.95        15.99156
387.40         15.9361
387.85        15.83267
388.29        15.69852
388.74        15.56627
389.19        15.44555
389.64        15.34277
390.09        15.24522
390.54        15.18262
390.98        15.18882
391.43        15.26286
391.88        15.41253
392.33        15.55848
392.78        15.50872
393.23        15.29525
393.67        15.11449
394.12        15.00899
394.57          14.886
395.02        14.75858
395.47        14.68441
395.91        14.66398
396.36        14.64907
396.81        14.64005
397.26        14.65877
397.71        14.66658
398.15        14.62123
398.60        14.54247
399.05        14.35742
399.50        14.15105
399.95        14.20859
400.39        14.47274
400.84        14.50809
401.29        14.31092
401.74        14.22369
402.18        14.25324
402.63        14.20432
403.08        14.09756
403.53        13.94864
403.97        13.96815
404.42         13.9589
404.87        13.96949
405.32        13.97875
405.76        13.97652
406.21         13.9713
406.66        13.95768
407.11        13.93114
407.55          13.895
408.00        13.84698
408.45        13.78853
408.90        13.72235
409.34        13.65233
409.79        13.57723
410.24        13.51562
410.68        13.48985
411.13        13.50196
411.58        13.54758
412.03        13.58791
412.47        13.55776
412.92        13.44287
413.37        13.26964
413.81        13.09707
414.26         13.0207
414.71        13.04976
415.15        13.16516
415.60        13.30076
416.05         13.3504
416.49        13.28417
416.94        13.13865
417.39        12.98049
417.83        12.90665
418.28        12.93651
418.73        13.03172
419.17        13.14497
419.62        13.19143
420.07        13.14737
420.51        13.04228
420.96        12.90584
421.41        12.76986
421.85         12.6439
422.30        12.52616
422.74        12.42087
423.19        12.37239
423.64        12.37135
424.08        12.39665
424.53        12.41542
424.98        12.42279
425.42         12.4178
425.87        12.36241
426.31        12.29292
426.76        12.34482
427.21        12.49041
427.65        12.53928
428.10        12.49832
428.54         12.5093
428.99        12.57778
429.44        12.69113
429.88         12.7752
430.33        12.64439
430.77        12.36264
431.22        12.21251
431.66        12.22795
432.11        12.30719
432.56        12.40348
433.00         12.5136
433.45        12.51454
433.89        12.36237
434.34        11.73229
434.78         11.6991
435.23        12.14276
435.67        12.28053
436.12        12.10452
436.57        12.05415
437.01        12.14541
437.46        12.16946
437.90        12.12111
438.35        12.05987
438.79        12.00097
439.24        11.95791
439.68        11.94265
440.13        11.97986
440.57        12.03218
441.02        12.02482
441.46         11.9455
441.91        11.81621
442.35        11.67703
442.80        11.66527
443.24        11.75127
443.69        11.78535
444.13        11.74973
444.58        11.73961
445.02        11.74997
445.47        11.71573
445.91        11.65729
446.36        11.64827
446.80        11.69175
447.24        11.76644
447.69        11.84381
448.13        11.87843
448.58        11.86138
449.02        11.80695
449.47        11.74199
449.91        11.70075
450.36        11.69487
450.80        11.70873
451.25        11.72917
451.69        11.73175
452.13        11.70945
452.58        11.67128
453.02         11.6208
453.47        11.56804
453.91        11.51788
454.36         11.4697
454.80        11.42191
455.24        11.38799
455.69        11.37623
456.13         11.3456
456.58        11.30421
457.02        11.39657
457.46        11.43618
457.91        11.45257
458.35        11.40133
458.79        11.41702
459.24        11.48519
459.68        11.47221
460.13        11.39586
460.57        11.34079
461.01        11.32051
461.46        11.28436
461.90         11.2424
462.34        11.22307
462.79         11.2264
463.23        11.24467
463.68        11.26996
464.12        11.27724
464.56        11.26052
465.01        11.25996
465.45        11.26116
465.89        11.20944
466.34        11.13985
466.78        11.16099
467.22        11.26496
467.67        11.33462
468.11        11.34996
468.55        11.32706
468.99        11.28742
469.44        11.27981
469.88         11.3128
470.32        11.35168
470.77        11.38456
471.21        11.41091
471.65        11.42537
472.10        11.43093
472.54        11.42927
472.98        11.42927
473.42        11.43384
473.87        11.44338
474.31        11.45257
474.75        11.46521
475.20        11.48454
475.64        11.50254
476.08        11.51448
476.52        11.52886
476.97        11.54823
477.41        11.54131
477.85        11.49946
478.29        11.62875
478.74        11.54506
479.18        11.64153
479.62        11.78077
480.06        11.87001
480.50         11.8943
480.95         11.9094
481.39        11.92833
481.83        11.95681
482.27        12.00829
482.72        12.09629
483.16        12.19741
483.60        12.27064
484.04        12.29737
484.48        12.29429
484.93        12.36357
485.37        12.54432
485.81         12.7463
486.25        13.40147
486.69        13.00919
487.14        12.99719
487.58        13.41112
488.02        13.28997
488.46        13.40522
488.90        13.17559
489.34        13.09219
489.79        13.17381
490.23        13.44275
490.67        13.78088
491.11        14.06284
491.55        14.02365
491.99        13.75401
492.43        13.72942
492.88        13.98841
493.32        14.24677
493.76        14.44187
494.20        14.62083
494.64        14.76875
495.08        14.87391
495.52        14.95561
495.96        15.05728
496.41         15.1881
496.85        15.30778
497.29        15.42351
497.73        15.60279
498.17        15.81485
498.61         15.9469
499.05        15.99027
499.49        15.99121
499.93        15.99101
500.37         16.0729
500.82        16.22386
501.26        16.32625
501.70         16.3719
502.14        16.44134
502.58        16.54405
503.02        16.64994
503.46         16.7569
503.90        16.87395
504.34        16.98211
504.78        17.04887
505.22        17.07081
505.66         17.0552
506.10        17.02217
506.54        17.04414
506.98        17.13966
507.42        17.21945
507.86         17.2475
508.30        17.54121
508.74        17.47713
509.18        17.55961
509.62        17.60873
510.06        17.64708
510.50        17.67496
510.94        17.69375
511.38        17.71663
511.82        17.74889
512.26        17.79323
512.70        17.84901
513.14        17.90241
513.58        17.93122
514.02        17.93077
514.46        17.90549
514.90        17.87386
515.34        17.86608
515.78        17.88964
516.22        17.93841
516.66        17.98726
517.10        17.99621
517.54        17.95854
517.98        17.88644
518.42        17.81584
518.86         17.8033
519.30        17.85892
519.74         17.9636
520.18        18.07317
520.62        18.11642
521.06        18.07561
521.50         17.9727
521.93        17.84837
522.37        17.76895
522.81        17.75109
523.25        17.77529
523.69          17.811
524.13        17.81031
524.57        17.76162
525.01        17.68223
525.45        17.59704
525.89        17.54398
526.32        17.53026
526.76         17.5424
527.20        17.55854
527.64        17.54705
528.08        17.50056
528.52        17.43245
528.96        17.35444
529.40        17.28531
529.83        17.22895
530.27        17.17957
530.71        17.13853
531.15         17.1108
531.59        17.09347
532.03        17.08774
532.46        17.07267
532.90        17.01456
533.34         16.9142
533.78        16.78931
534.22        16.67329
534.66        16.61444
535.09        16.61841
535.53        16.66849
535.97        16.74315
536.41        16.79464
536.85        16.80562
537.28        16.83212
537.72        16.86321
538.16        16.77561
538.60         16.6269
539.04        16.65122
539.47        16.81817
539.91        16.88875
540.35        16.85169
540.79        16.85041
541.22        16.89499
541.66        16.94812
542.10        17.01442
542.54        17.07963
542.97        17.14926
543.41        17.30099
543.85        17.50392
544.29         17.6222
544.72        17.66435
545.16        17.77041
545.60        17.94305
546.04        18.10978
546.47        18.25577
546.91        18.39071
547.35        18.51115
547.79        18.62247
548.22        18.74221
548.66        18.89583
549.10        19.09321
549.53         19.3699
549.97        19.68098
550.41         19.9061
550.84        20.02076
551.28        20.08066
551.72        20.11641
552.15        20.16211
552.59        20.24544
553.03        20.34649
553.46        20.46243
553.90        20.61726
554.34        20.79699
554.77        20.97674
555.21        21.14404
555.65        21.29401
556.08        21.41663
556.52        21.50785
556.96        21.57307
557.39        21.64293
557.83         21.7311
558.27        21.80054
558.70        21.85793
559.14         21.9652
559.57        22.09833
560.01        22.16927
560.45        22.18522
560.88        22.23536
561.32        22.33587
561.75        22.42211
562.19        22.50973
562.63        22.60125
563.06        22.68713
563.50        22.83841
563.93        23.01551
564.37        22.99822
564.80        22.85471
565.24        22.97643
565.68        23.30724
566.11        23.46546
566.55        23.44118
566.98        23.43004
567.42        23.47346
567.85         23.6161
568.29        23.71147
568.72        23.89118
569.16        24.11251
569.60        24.32223
570.03        24.49796
570.47        24.70189
570.90        24.93811
571.34        24.93317
571.77        25.42144
572.21        25.31838
572.64        25.53797
573.08        25.49574
573.51        25.84452
573.95        25.85816
574.38        25.78035
574.82        25.62911
