SpectraSmart Spectrum 2.9.0.0
--------- Device Information -----------
Spectrum Name :  反射率_0
Saving Time :  2024/05/03 20:49:55
Spectro-Module Model Name : SE2030-DUVN
Spectro-Module Serial Number : OS361AC55029948
Wavelength Start : 200
Wavelength End : 1025
Wavelength Unit : Wavelength(nm)
Spectrum Unit : Reflectance(%)
-----------Spectrum Setting ------------
Integration Time : 20ms
Average : 10
Boxcar : 0
Background removal :  enabled
linearity correction :  enabled
SC :  disabled
Intensity correction :  disabled
DWT denoise :  enabled
savitzky-golay :  disabled
FFT :  disabled
Running average :  disabled
Kalman :  disabled
High pass :  disabled
---------------BEGIN--------------------
Wavelength(nm)             Reflectance(%)
200.29               0
200.75        -23.7569
201.21       -31.50065
201.67         471.096
202.13        9.242133
202.58        8.197088
203.04        12.20074
203.50        15.95186
203.96        16.29132
204.42         11.3449
204.88       -10.45027
205.34        740.0204
205.80        81.29061
206.26        55.18312
206.72       -3512.319
207.18        70.24701
207.64        63.03982
208.10        59.18813
208.55        53.91377
209.01        -16.2935
209.47       -107.1947
209.93        25.06191
210.39        40.03495
210.85        45.53626
211.31        50.25762
211.77        57.11036
212.23        72.45925
212.69        109.0361
213.14        127.1299
213.60        71.86145
214.06        39.65635
214.52        27.78578
214.98        24.13689
215.44        24.89496
215.90        35.34365
216.36       -159.5746
216.81       -38.97747
217.27       -62.97087
217.73       -154.1735
218.19       -681.9843
218.65       -14841.92
219.11       -1088.592
219.57       -278.3659
220.02       -147.3882
220.48       -237.7637
220.94        288.9988
221.40        99.36411
221.86        73.13647
222.32        68.10992
222.77         71.2891
223.23        82.32861
223.69        102.3255
224.15        117.9676
224.61        115.9234
225.06         105.264
225.52        97.85606
225.98         98.9009
226.44        108.1454
226.90        124.0034
227.36        145.1369
227.81        162.0053
228.27        165.7078
228.73        160.4535
229.19        149.9038
229.65        136.8817
230.10        123.3579
230.56         111.019
231.02        101.2433
231.48        95.90747
231.93        94.44489
232.39        95.84704
232.85        98.76384
233.31        101.6794
233.77        103.9766
234.22        105.6904
234.68        107.0968
235.14        108.6617
235.60        110.4419
236.05        112.5868
236.51        113.3064
236.97        110.0234
237.43        102.7928
237.88        93.12267
238.34        84.65724
238.80        81.40772
239.26        84.39146
239.71        96.12346
240.17        117.5132
240.63        138.3412
241.08        140.2418
241.54        118.9975
242.00        91.96911
242.46        77.02847
242.91        75.46851
243.37        85.07182
243.83        109.7052
244.28        140.5173
244.74        148.7886
245.20        134.8266
245.66        108.1688
246.11        77.95632
246.57        49.51974
247.03        22.49885
247.48        2.613295
247.94       -5.350022
248.40       -2.625096
248.85        7.888992
249.31         23.5322
249.77        35.13917
250.22        38.47152
250.68        37.23151
251.14        35.09245
251.59        35.51601
252.05        39.74924
252.51         48.3347
252.96        62.39145
253.42         78.1694
253.88        88.35912
254.33        91.40109
254.79        90.44688
255.25        88.57699
255.70        86.95258
256.16        86.36981
256.62        86.15327
257.07        86.05803
257.53        86.53732
257.99        86.89824
258.44        87.23489
258.90        88.34313
259.35         89.3829
259.81        90.69206
260.27        91.07755
260.72         89.3858
261.18        86.66795
261.63        83.32495
262.09        80.76514
262.55        79.79764
263.00        80.15324
263.46        81.42023
263.91         82.7559
264.37        83.44959
264.83        83.23329
265.28        82.39018
265.74        81.29822
266.19        80.01865
266.65        78.81822
267.11         77.5249
267.56        76.23985
268.02        75.29066
268.47        74.61644
268.93        74.21425
269.38        73.83921
269.84        73.06976
270.30        71.89206
270.75        70.46673
271.21        69.18333
271.66        68.44267
272.12        68.30573
272.57        68.49833
273.03        68.76586
273.48        68.71599
273.94        68.25205
274.39        67.51463
274.85        66.51375
275.31        65.09588
275.76        63.33662
276.22        61.44289
276.67        59.76279
277.13        58.98759
277.58        59.01454
278.04        59.64125
278.49        60.26414
278.95        60.02925
279.40        58.73409
279.86        56.87799
280.31        54.83404
280.77        53.28117
281.22        52.20367
281.68        51.46564
282.13        50.86093
282.59        50.24801
283.04          49.529
283.50          48.826
283.95        48.12066
284.41        47.44878
284.86        46.78303
285.32        46.16053
285.77        45.54664
286.22        44.99879
286.68        44.54552
287.13        44.11834
287.59        43.77688
288.04        43.50502
288.50         43.3167
288.95        43.16426
289.41        42.97994
289.86        42.59473
290.32        42.03518
290.77        41.33758
291.22        40.66269
291.68        40.21621
292.13        40.01601
292.59        40.03093
293.04        40.14858
293.50        40.21049
293.95        40.16247
294.40        40.05722
294.86        39.99808
295.31        40.11544
295.77        40.43008
296.22         40.8693
296.68        41.31439
297.13        41.58232
297.58        41.61864
298.04        41.51961
298.49        41.34538
298.95        41.23644
299.40        41.21524
299.85        41.25434
300.31        41.39486
300.76        41.66479
301.21        42.05701
301.67        42.55264
302.12        43.01666
302.58        43.27345
303.03        43.26826
303.48        43.07142
303.94        42.83091
304.39        42.69519
304.84        42.72784
305.30        42.87501
305.75        43.04659
306.20        43.14404
306.66        43.15662
307.11        43.10265
307.57        43.03424
308.02        42.94143
308.47         42.8554
308.93        42.76774
309.38        42.68409
309.83        42.66742
310.29        42.71946
310.74        42.81222
311.19        42.88111
311.65        42.81722
312.10        42.59163
312.55        42.24123
313.00        41.84807
313.46        41.54293
313.91        41.34425
314.36          41.233
314.82        41.15034
315.27        40.98674
315.72         40.7286
316.18        40.41407
316.63        40.11234
317.08        39.93614
317.53        39.90584
317.99        39.97309
318.44        40.06885
318.89        40.06145
319.35         39.9134
319.80        39.66442
320.25        39.36954
320.70        39.12336
321.16        38.94323
321.61        38.80061
322.06        38.65818
322.51        38.46192
322.97        38.19584
323.42        37.90019
323.87         37.5836
324.32        37.25841
324.78        36.93552
325.23         36.6258
325.68        36.35909
326.13        36.19152
326.59        36.11874
327.04        36.14126
327.49        36.20229
327.94        36.21826
328.39        36.15759
328.85        36.02443
329.30        35.85271
329.75        35.66634
330.20        35.48298
330.66        35.28475
331.11        35.10023
331.56        34.93213
332.01        34.78557
332.46        34.66611
332.92        34.56081
333.37        34.48436
333.82        34.42056
334.27         34.3689
334.72        34.32427
335.17        34.28083
335.63        34.22385
336.08        34.16722
336.53        34.10295
336.98        34.03647
337.43        33.96949
337.88        33.90534
338.34        33.83371
338.79        33.74146
339.24        33.63213
339.69        33.52093
340.14        33.43407
340.59        33.41434
341.05        33.46389
341.50        33.55635
341.95        33.67108
342.40         33.7817
342.85        33.86787
343.30        33.93526
343.75        33.93642
344.20        33.79911
344.66        33.53773
345.11        33.18504
345.56        32.84945
346.01        32.69185
346.46        32.74971
346.91        32.97476
347.36         33.2895
347.81        33.56717
348.26        33.75945
348.72        33.89176
349.17        33.97298
349.62        34.03144
350.07        34.07482
350.52        34.08422
350.97        34.04935
351.42        33.96504
351.87        33.83309
352.32         33.6618
352.77        33.47804
353.22        33.31822
353.67        33.19512
354.13        33.11767
354.58        33.03952
355.03        32.91064
355.48        32.72739
355.93        32.51064
356.38        32.31739
356.83        32.23755
357.28        32.28086
357.73        32.40553
358.18        32.54335
358.63        32.58511
359.08        32.50009
359.53        32.32535
359.98          32.089
360.43        31.83991
360.88         31.5983
361.33        31.34154
361.78        31.10014
362.23        30.92036
362.68        30.80384
363.13        30.74972
363.58        30.67839
364.03         30.4584
364.48        30.07552
364.93        29.57534
365.38          29.087
365.83        28.80892
366.28        28.78014
366.73        28.93891
367.18        29.15209
367.63        29.20251
368.08        29.02876
368.53        28.68999
368.98        28.29807
369.43        28.02391
369.88        27.90878
370.33        27.90252
370.78        27.90566
371.23        27.75791
371.68         27.4269
372.13        26.97587
372.58        26.53076
373.03        26.27352
373.48        26.24017
373.93        26.37117
374.38         26.5453
374.83        26.56266
375.28        26.37122
375.72        26.02871
376.17        25.66307
376.62        25.41833
377.07        25.32657
377.52        25.33246
377.97        25.37068
378.42        25.34111
378.87        25.21684
379.32        25.03904
379.77        24.84673
380.22         24.6875
380.67        24.57156
381.11        24.48281
381.56        24.39589
382.01        24.29397
382.46        24.17464
382.91        24.05185
383.36        23.93344
383.81        23.82518
384.26        23.72721
384.71        23.63381
385.15         23.5403
385.60        23.45979
386.05        23.38417
386.50        23.30697
386.95        23.22061
387.40        23.11303
387.85        22.98584
388.29        22.84042
388.74        22.69888
389.19        22.53852
389.64        22.36059
390.09         22.1677
390.54        22.00085
390.98        21.90444
391.43        21.89329
391.88        21.98768
392.33        22.11753
392.78        22.07223
393.23        21.89566
393.67         21.8377
394.12        21.90839
394.57        21.89546
395.02        21.79483
395.47        21.71316
395.91         21.6692
396.36        21.62714
396.81        21.60146
397.26        21.61186
397.71        21.60829
398.15        21.54144
398.60        21.43885
399.05        21.19279
399.50        20.91406
399.95        20.99892
400.39         21.3601
400.84        21.36758
401.29         21.0299
401.74        20.87351
402.18        20.91717
402.63        20.86267
403.08        20.74851
403.53        20.60947
403.97        20.74809
404.42         20.8646
404.87        20.99141
405.32        21.03632
405.76        20.97671
406.21        20.84975
406.66        20.68919
407.11        20.55462
407.55        20.46966
408.00         20.4109
408.45        20.37225
408.90        20.33742
409.34        20.29965
409.79        20.26929
410.24          20.248
410.68        20.23151
411.13        20.22072
411.58         20.2109
412.03        20.19784
412.47        20.18168
412.92        20.15554
413.37         20.1221
413.81        20.08187
414.26        20.05909
414.71        20.04647
415.15        20.04775
415.60        20.03672
416.05        19.99512
416.49        19.92162
416.94        19.82894
417.39        19.73873
417.83        19.67957
418.28        19.65726
418.73        19.65637
419.17         19.6687
419.62        19.67051
420.07        19.65553
420.51         19.6249
420.96        19.57825
421.41        19.49849
421.85        19.38197
422.30        19.25211
422.74        19.12244
423.19        19.06779
423.64        19.08208
424.08        19.12215
424.53        19.16443
424.98        19.24788
425.42        19.37341
425.87        19.46192
426.31        19.51251
426.76        19.64567
427.21        19.79846
427.65        19.69869
428.10        19.41681
428.54        19.26668
428.99        19.29004
429.44        19.44625
429.88        19.60277
430.33        19.44456
430.77        19.05537
431.22        18.87829
431.66        18.96815
432.11        19.16994
432.56         19.4072
433.00        19.66654
433.45         19.7356
433.89        19.51762
434.34        18.49585
434.78        18.38261
435.23        19.00212
435.67        19.15564
436.12          18.845
436.57        18.74852
437.01        18.89351
437.46        18.95895
437.90         18.9315
438.35        18.90217
438.79         18.8723
439.24        18.82959
439.68        18.78815
440.13        18.79762
440.57        18.82417
441.02        18.79321
441.46         18.6973
441.91        18.55605
442.35        18.41444
442.80        18.46556
443.24        18.65663
443.69        18.75404
444.13        18.73348
444.58        18.75364
445.02        18.80555
445.47        18.78028
445.91         18.6969
446.36         18.6561
446.80        18.66293
447.24        18.69373
447.69        18.72456
448.13        18.71729
448.58          18.667
449.02        18.58613
449.47         18.5048
449.91        18.45454
450.36        18.44787
450.80        18.46943
451.25        18.49899
451.69         18.4967
452.13        18.45568
452.58        18.38981
453.02        18.31848
453.47        18.28084
453.91        18.28456
454.36        18.31614
454.80        18.35002
455.24         18.3752
455.69        18.39178
456.13         18.3388
456.58        18.23554
457.02        18.32573
457.46        18.31869
457.91        18.27122
458.35        18.11644
458.79        18.07417
459.24        18.12397
459.68        18.05246
460.13        17.91026
460.57        17.86375
461.01        17.93153
461.46        18.02545
461.90        18.10022
462.34         18.1073
462.79        18.02844
463.23        17.87776
463.68        17.72351
464.12        17.66191
464.56        17.70972
465.01        17.88276
465.45        18.07561
465.89        18.08404
466.34        17.94095
466.78         17.8597
467.22         17.8791
467.67         17.9028
468.11        17.92931
468.55        17.95264
468.99        17.96402
469.44        17.97452
469.88        17.98163
470.32        17.95733
470.77        17.91208
471.21        17.89116
471.65        17.89877
472.10        17.91822
472.54        17.94255
472.98        17.97158
473.42        18.00188
473.87        18.04295
474.31        18.06893
474.75        18.05705
475.20        18.01322
475.64        17.93432
476.08          17.854
476.52        17.85019
476.97        17.93631
477.41        18.04204
477.85        18.10368
478.29        18.36314
478.74        18.19261
479.18        18.23826
479.62        18.32026
480.06        18.35354
480.50        18.33461
480.95        18.33272
481.39        18.35247
481.83        18.37472
482.27        18.41371
482.72         18.5033
483.16        18.60517
483.60        18.67042
484.04        18.69483
484.48        18.60052
484.93        18.53431
485.37        18.81244
485.81        19.26675
486.25        19.65421
486.69        19.91942
487.14        19.57452
487.58        19.66833
488.02        19.34694
488.46        19.47905
488.90        19.42163
489.34        19.26243
489.79        19.27846
490.23        19.44281
490.67        19.77154
491.11         20.1505
491.55        20.21666
491.99        20.01768
492.43        20.00183
492.88        20.19547
493.32        20.32901
493.76        20.38043
494.20        20.45835
494.64        20.56611
495.08        20.67921
495.52        20.79128
495.96        20.90203
496.41        21.00773
496.85        21.07482
497.29        21.12571
497.73        21.26939
498.17        21.46995
498.61        21.56425
499.05        21.54889
499.49        21.50265
499.93        21.48169
500.37         21.5943
500.82        21.80479
501.26         21.9242
501.70        21.93565
502.14        21.95745
502.58        22.01942
503.02        22.11035
503.46        22.23394
503.90        22.38944
504.34        22.54251
504.78         22.6354
505.22        22.65626
505.66        22.62058
506.10        22.54745
506.54        22.51932
506.98        22.56291
507.42         22.5674
507.86        22.50836
508.30        22.83625
508.74        22.74595
509.18        22.88018
509.62        22.98831
510.06        23.07147
510.50        23.11918
510.94        23.14303
511.38        23.15195
511.82        23.14107
512.26        23.11795
512.70        23.08533
513.14        23.05878
513.58        23.06236
514.02        23.09884
514.46        23.15997
514.90        23.22782
515.34        23.27056
515.78        23.28008
516.22        23.26931
516.66        23.24434
517.10        23.21557
517.54         23.1906
517.98        23.16526
518.42        23.15699
518.86        23.19421
519.30        23.27709
519.74        23.39451
520.18         23.5105
520.62        23.56576
521.06        23.54519
521.50        23.46495
521.93         23.3548
522.37        23.26815
522.81        23.21925
523.25          23.194
523.69        23.17862
524.13        23.14958
524.57        23.10245
525.01        23.05241
525.45        23.00507
525.89        22.96665
526.32        22.93867
526.76        22.91659
527.20        22.90909
527.64        22.93354
528.08        22.98767
528.52        23.06423
528.96        23.12982
529.40        23.13255
529.83        23.05996
530.27        22.93229
530.71        22.79019
531.15        22.70005
531.59        22.67774
532.03          22.708
532.46        22.75102
532.90        22.74249
533.34        22.67146
533.78        22.56406
534.22         22.4618
534.66        22.42398
535.09        22.45612
535.53        22.53572
535.97        22.62785
536.41        22.66123
536.85        22.61666
537.28        22.57756
537.72        22.54997
538.16        22.40189
538.60        22.21676
539.04        22.29605
539.47        22.58136
539.91        22.72376
540.35        22.69626
540.79        22.69653
541.22         22.7402
541.66         22.7821
542.10        22.83051
542.54        22.86309
542.97        22.88949
543.41        23.01667
543.85        23.20625
544.29        23.28325
544.72        23.26033
545.16        23.32036
545.60         23.4666
546.04        23.60245
546.47         23.7192
546.91        23.84638
547.35        23.98029
547.79        24.12337
548.22        24.27297
548.66        24.42274
549.10        24.57978
549.53        24.80086
549.97        25.06127
550.41         25.2642
550.84        25.38857
551.28        25.49081
551.72        25.57771
552.15        25.61749
552.59        25.62784
553.03         25.7039
553.46        25.69046
553.90        25.77426
554.34        25.89942
554.77        26.03207
555.21        26.16908
555.65        26.32828
556.08        26.49896
556.52        26.66609
556.96        26.80798
557.39        26.91805
557.83        27.00122
558.27        27.02045
558.70        27.00491
559.14        27.06774
559.57        27.19028
560.01        27.25609
560.45        27.25788
560.88        27.28031
561.32        27.33957
561.75        27.36706
562.19        27.40309
562.63        27.48176
563.06        27.59658
563.50        27.82231
563.93        28.08593
564.37        28.07982
564.80        27.87799
565.24        27.97035
565.68        28.30827
566.11        28.46071
566.55        28.42365
566.98        28.42197
567.42        28.48805
567.85        28.64981
568.29        28.72177
568.72         28.8745
569.16        29.07434
569.60        29.25941
570.03        29.38493
570.47        29.60968
570.90        29.95521
571.34        29.78716
571.77        30.08644
572.21        30.34571
572.64        30.31906
573.08        30.12121
573.51        30.63626
573.95        30.71957
574.38         30.7225
574.82        30.70883
