SpectraSmart Spectrum 2.9.0.0
--------- Device Information -----------
Spectrum Name :  反射率_0
Saving Time :  2024/05/03 20:40:35
Spectro-Module Model Name : SE2030-DUVN
Spectro-Module Serial Number : OS361AC55029948
Wavelength Start : 200
Wavelength End : 1025
Wavelength Unit : Wavelength(nm)
Spectrum Unit : Reflectance(%)
-----------Spectrum Setting ------------
Integration Time : 20ms
Average : 10
Boxcar : 0
Background removal :  enabled
linearity correction :  enabled
SC :  disabled
Intensity correction :  disabled
DWT denoise :  enabled
savitzky-golay :  disabled
FFT :  disabled
Running average :  disabled
Kalman :  disabled
High pass :  disabled
---------------BEGIN--------------------
Wavelength(nm)             Reflectance(%)
200.29               0
200.75       -1.372288
201.21        28.81551
201.67       -1808.463
202.13       -66.55869
202.58       -23.04535
203.04        2.980487
203.50        20.31245
203.96        26.40105
204.42        19.66622
204.88       -19.82183
205.34        1469.712
205.80        185.0856
206.26        184.2507
206.72         25416.3
207.18       -17.33331
207.64        17.65082
208.10        25.86431
208.55        31.13035
209.01         24.5661
209.47       -38.92023
209.93        7.517394
210.39        12.42367
210.85        14.48147
211.31        17.43841
211.77        22.50556
212.23        34.43134
212.69        63.01251
213.14        75.22989
213.60        30.14319
214.06        5.290058
214.52       -4.286838
214.98       -9.175797
215.44        -14.4718
215.90       -31.58439
216.36        157.6785
216.81        4.225445
217.27       -30.23983
217.73       -109.3508
218.19       -520.7188
218.65       -10387.36
219.11       -581.4279
219.57       -59.62496
220.02        36.68792
220.48        90.91676
220.94       -9.003966
221.40        38.42631
221.86        48.02582
222.32        51.05866
222.77        51.68164
223.23        52.06672
223.69        51.64347
224.15        48.90142
224.61        45.40816
225.06        42.32768
225.52        41.96872
225.98        45.56821
226.44        53.21529
226.90        65.37897
227.36        80.40684
227.81        89.48277
228.27        87.11454
228.73        78.07242
229.19        67.51634
229.65        59.35328
230.10        53.81116
230.56        50.01913
231.02        47.70338
231.48        46.90409
231.93        47.21223
232.39        48.53059
232.85        50.10381
233.31        50.89644
233.77        50.73601
234.22        49.83507
234.68        48.83778
235.14        48.88165
235.60        50.29575
236.05        52.88159
236.51        55.82542
236.97        57.55677
237.43         57.4574
237.88        56.15088
238.34        54.60619
238.80        53.91539
239.26        54.41926
239.71         57.9352
240.17        62.39418
240.63        68.21705
241.08        70.84443
241.54        68.44431
242.00        64.39433
242.46        63.19323
242.91        66.04484
243.37        73.14204
243.83        85.30431
244.28        93.71755
244.74        82.77127
245.20        57.75918
245.66        34.18425
246.11        21.50566
246.57        18.25403
247.03         20.2662
247.48        23.89233
247.94        25.46057
248.40        24.61202
248.85        22.13293
249.31        19.36118
249.77         18.4947
250.22        19.99338
250.68        22.57454
251.14        25.23504
251.59        27.76968
252.05        30.80962
252.51        35.25624
252.96        42.58444
253.42        53.06618
253.88        63.13439
254.33        69.68819
254.79        71.03092
255.25        67.34779
255.70        61.88039
256.16        57.17588
256.62        54.32322
257.07        53.99629
257.53        55.72687
257.99        58.22266
258.44        60.14825
258.90        60.57776
259.35        59.23955
259.81        57.31175
260.27        55.26439
260.72         53.5801
261.18         52.6379
261.63        52.00087
262.09        51.60194
262.55        51.02558
263.00        50.17405
263.46        49.21035
263.91        48.37451
264.37        48.27642
264.83        48.81795
265.28        49.69977
265.74        50.37391
266.19        49.88126
266.65        48.31625
267.11        45.99819
267.56        43.63106
268.02        42.28841
268.47        42.07841
268.93          42.673
269.38        43.45736
269.84        43.39132
270.30         42.2662
270.75        40.49707
271.21        38.67717
271.66        37.52024
272.12        37.18524
272.57        37.33941
273.03        37.72031
273.48        37.95184
273.94        37.88518
274.39        37.64496
274.85        37.20565
275.31        36.41089
275.76        35.31366
276.22        34.06549
276.67        32.90638
277.13        32.28745
277.58        32.17505
278.04        32.43814
278.49        32.78653
278.95        32.81705
279.40        32.39004
279.86        31.73318
280.31        30.93203
280.77        30.22008
281.22        29.58061
281.68        28.99605
282.13        28.44465
282.59        27.98951
283.04        27.61703
283.50        27.34978
283.95        27.13006
284.41        26.89531
284.86        26.61335
285.32        26.32943
285.77        26.05369
286.22         25.8679
286.68        25.78835
287.13        25.74751
287.59        25.73435
288.04        25.68179
288.50        25.59508
288.95        25.47484
289.41        25.32672
289.86        25.11399
290.32        24.87017
290.77        24.59225
291.22        24.36185
291.68        24.28244
292.13        24.36044
292.59        24.59697
293.04        24.90051
293.50        25.13543
293.95        25.26371
294.40        25.32699
294.86        25.44771
295.31        25.80702
295.77        26.43292
296.22        27.25009
296.68        28.09893
297.13        28.71533
297.58        29.01593
298.04        29.09502
298.49         29.0651
298.95        29.13651
299.40        29.35159
299.85        29.65687
300.31        30.02208
300.76        30.37244
301.21        30.69227
301.67         31.0142
302.12         31.3123
302.58        31.56015
303.03         31.7402
303.48         31.8609
303.94         31.9805
304.39        32.13903
304.84        32.36243
305.30        32.63026
305.75         32.8849
306.20        33.06768
306.66        33.17542
307.11        33.21263
307.57         33.2196
308.02        33.19218
308.47        33.15973
308.93        33.12441
309.38        33.09465
309.83        33.12193
310.29        33.20831
310.74        33.32711
311.19        33.43419
311.65        33.45477
312.10        33.36078
312.55         33.1729
313.00        32.92647
313.46        32.68095
313.91        32.44731
314.36         32.2304
314.82         32.0206
315.27        31.78886
315.72        31.54295
316.18        31.29866
316.63        31.09532
317.08        30.99437
317.53        31.00006
317.99        31.08063
318.44        31.17834
318.89        31.18551
319.35        31.06902
319.80        30.85381
320.25        30.58458
320.70        30.34087
321.16         30.1403
321.61        29.96639
322.06        29.78675
322.51        29.55255
322.97        29.25488
323.42        28.92797
323.87        28.60318
324.32        28.32864
324.78         28.1141
325.23        27.94923
325.68        27.81345
326.13        27.67776
326.59        27.52018
327.04        27.36608
327.49        27.20275
327.94        27.02041
328.39        26.81947
328.85        26.59131
329.30        26.37076
329.75        26.19341
330.20        26.06816
330.66        25.97651
331.11        25.90204
331.56        25.77815
332.01        25.59286
332.46        25.37078
332.92        25.13131
333.37        24.94149
333.82        24.80942
334.27        24.71298
334.72         24.6599
335.17        24.66265
335.63        24.70344
336.08        24.79319
336.53        24.85998
336.98        24.79635
337.43        24.58487
337.88        24.25744
338.34        23.90737
338.79        23.69319
339.24        23.65473
339.69        23.74908
340.14        23.89685
340.59        23.96589
341.05        23.91503
341.50        23.78385
341.95         23.6197
342.40        23.50254
342.85        23.45529
343.30        23.44938
343.75        23.44689
344.20        23.39278
344.66        23.28332
345.11        23.13951
345.56        23.00395
346.01        22.93358
346.46        22.94229
346.91        23.00821
347.36        23.10098
347.81        23.17606
348.26        23.21567
348.72        23.22812
349.17        23.21857
349.62        23.20333
350.07        23.18627
350.52        23.16126
350.97        23.11391
351.42         23.0253
351.87         22.8945
352.32        22.72964
352.77        22.56221
353.22        22.44007
353.67         22.3747
354.13        22.36247
354.58        22.35387
355.03        22.28977
355.48         22.1614
355.93        21.99192
356.38        21.83118
356.83        21.75683
357.28        21.78347
357.73        21.88165
358.18        22.00223
358.63        22.06679
359.08        22.05093
359.53        21.97548
359.98        21.86699
360.43        21.77012
360.88        21.69509
361.33        21.62054
361.78        21.53556
362.23        21.42396
362.68        21.28342
363.13        21.13214
363.58        20.96361
364.03        20.76585
364.48        20.54604
364.93        20.30881
365.38        20.10261
365.83        19.99882
366.28        20.00609
366.73        20.10574
367.18        20.21898
367.63        20.21725
368.08        20.07143
368.53        19.81426
368.98        19.53926
369.43        19.39274
369.88        19.40312
370.33        19.52521
370.78         19.6585
371.23        19.63448
371.68        19.41275
372.13         19.0533
372.58        18.66222
373.03        18.39706
373.48        18.29667
373.93        18.31233
374.38        18.37017
374.83        18.34936
375.28        18.21436
375.72        17.99983
376.17        17.77608
376.62        17.60948
377.07        17.51697
377.52        17.47413
377.97        17.44448
378.42        17.37591
378.87        17.25858
379.32        17.11283
379.77        16.98175
380.22        16.92198
380.67        16.94067
381.11        17.02315
381.56        17.10758
382.01        17.10452
382.46        16.99241
382.91        16.79692
383.36        16.58919
383.81        16.47342
384.26        16.46728
384.71        16.54005
385.15        16.61037
385.60        16.56456
386.05        16.37622
386.50        16.09084
386.95        15.80028
387.40        15.63972
387.85        15.63532
388.29         15.7321
388.74        15.86127
389.19        15.88912
389.64        15.78886
390.09        15.59854
390.54         15.3943
390.98        15.28283
391.43        15.29274
391.88         15.4084
392.33        15.54679
392.78        15.51398
393.23        15.33472
393.67        15.20734
394.12         15.1646
394.57        15.09246
395.02        14.99886
395.47        14.94761
395.91        14.93891
396.36        14.92602
396.81        14.91258
397.26        14.91847
397.71        14.91975
398.15        14.89718
398.60        14.87008
399.05        14.75337
399.50        14.60822
399.95         14.6925
400.39        14.94141
400.84         14.9176
401.29        14.64091
401.74        14.50045
402.18        14.51517
402.63        14.47601
403.08        14.39523
403.53        14.27356
403.97        14.31776
404.42        14.32803
404.87        14.35106
405.32        14.35957
405.76         14.3429
406.21        14.31275
406.66        14.26278
407.11        14.18794
407.55        14.09527
408.00        13.98486
408.45        13.87671
408.90        13.80438
409.34        13.77736
409.79         13.7835
410.24        13.81374
410.68        13.85108
411.13        13.88842
411.58        13.92992
412.03        13.95218
412.47        13.91893
412.92        13.82358
413.37        13.68145
413.81        13.53803
414.26        13.47182
414.71        13.48843
415.15        13.57566
415.60        13.67671
416.05        13.70206
416.49        13.62844
416.94        13.48865
417.39        13.34048
417.83        13.26748
418.28        13.28636
418.73        13.36289
419.17        13.45975
419.62        13.50845
420.07        13.48799
420.51        13.42051
420.96        13.32306
421.41        13.20863
421.85         13.0844
422.30        12.95791
422.74         12.8422
423.19        12.79571
423.64        12.81246
424.08        12.86386
424.53        12.91779
424.98        12.97253
425.42        13.02186
425.87        13.02081
426.31        12.98892
426.76        13.04042
427.21         13.1423
427.65        13.10686
428.10        12.96381
428.54        12.89645
428.99         12.9227
429.44        13.01866
429.88        13.11124
430.33        13.01295
430.77         12.7834
431.22        12.71248
431.66        12.81147
432.11        12.94229
432.56        13.04801
433.00        13.09836
433.45         13.0009
433.89        12.86291
434.34        12.32019
434.78        12.30503
435.23        12.69832
435.67         12.8242
436.12        12.67661
436.57        12.62541
437.01        12.69211
437.46        12.70885
437.90        12.67416
438.35        12.63638
438.79        12.59793
439.24        12.55354
439.68        12.51305
440.13        12.50941
440.57        12.52476
441.02        12.51465
441.46        12.47054
441.91        12.40078
442.35        12.31876
442.80         12.3308
443.24        12.39963
443.69        12.38036
444.13        12.27716
444.58        12.22581
445.02        12.23238
445.47        12.21985
445.91        12.19423
446.36        12.20971
446.80        12.26217
447.24        12.33317
447.69        12.40543
448.13        12.45114
448.58        12.46253
449.02        12.44675
449.47        12.40777
449.91        12.34495
450.36        12.26812
450.80        12.17834
451.25        12.09659
451.69         12.0505
452.13        12.04607
452.58        12.07617
453.02        12.11996
453.47        12.14825
453.91        12.15168
454.36         12.1381
454.80         12.1118
455.24        12.09829
455.69        12.10824
456.13        12.08973
456.58        12.04807
457.02        12.13433
457.46        12.15239
457.91        12.14334
458.35        12.06216
458.79        12.05242
459.24        12.10075
459.68         12.0633
460.13        11.97461
460.57        11.94687
461.01        11.99389
461.46        12.05547
461.90        12.10405
462.34        12.10884
462.79        12.05868
463.23        11.96395
463.68        11.86764
464.12        11.82796
464.56        11.85693
465.01        11.96773
465.45        12.09632
465.89        12.11508
466.34        12.04629
466.78        12.02737
467.22        12.07963
467.67        12.12837
468.11        12.16681
468.55         12.1944
468.99        12.20156
469.44        12.19111
469.88        12.16313
470.32        12.10069
470.77        12.02707
471.21        11.99792
471.65         12.0222
472.10        12.08313
472.54        12.15593
472.98        12.20906
473.42        12.23201
473.87        12.23773
474.31        12.22836
474.75        12.21921
475.20        12.22016
475.64        12.22011
476.08        12.21653
476.52        12.22389
476.97        12.24588
477.41        12.24762
477.85         12.2214
478.29        12.38734
478.74        12.33237
479.18         12.4721
479.62        12.64708
480.06        12.73753
480.50        12.72648
480.95        12.68395
481.39        12.63934
481.83        12.62212
482.27        12.65253
482.72        12.73469
483.16        12.83953
483.60        12.92904
484.04        13.00498
484.48        13.00776
484.93        13.01095
485.37        13.22857
485.81        13.62821
486.25        13.64266
486.69        13.68868
487.14         13.4477
487.58        13.98319
488.02        13.65441
488.46        14.07258
488.90        13.92057
489.34        13.65434
489.79         13.6751
490.23        13.96218
490.67        14.29373
491.11        14.55221
491.55        14.58776
491.99        14.45045
492.43        14.46626
492.88        14.65629
493.32         14.8004
493.76        14.86996
494.20        14.94797
494.64        15.03646
495.08        15.11192
495.52        15.18942
495.96        15.30598
496.41        15.46279
496.85         15.6197
497.29        15.76886
497.73        15.95395
498.17        16.13913
498.61        16.21628
499.05        16.19159
499.49        16.13984
499.93        16.11238
500.37         16.1844
500.82        16.34431
501.26        16.47522
501.70        16.56362
502.14        16.68928
502.58        16.84233
503.02        16.96035
503.46         17.0361
503.90        17.08812
504.34        17.12029
504.78        17.14054
505.22        17.15726
505.66        17.16562
506.10        17.17208
506.54         17.2261
506.98        17.33834
507.42        17.42744
507.86        17.45601
508.30        17.74328
508.74        17.66027
509.18        17.71454
509.62         17.7363
510.06        17.76975
510.50        17.81779
510.94        17.87588
511.38        17.93773
511.82        17.97504
512.26        17.98458
512.70        17.97932
513.14        17.96588
513.58        17.95387
514.02        17.94769
514.46         17.9409
514.90        17.94544
515.34        17.98021
515.78        18.04569
516.22        18.13926
516.66        18.22632
517.10        18.25143
517.54        18.20704
517.98        18.10915
518.42        18.01006
518.86        17.99439
519.30        18.07766
519.74        18.23069
520.18         18.3952
520.62        18.47575
521.06        18.44668
521.50        18.33839
521.93        18.19375
522.37        18.08313
522.81        18.02737
523.25        18.00533
523.69         17.9991
524.13        17.98049
524.57        17.94202
525.01        17.89955
525.45        17.85899
525.89        17.82594
526.32        17.80206
526.76         17.7827
527.20        17.77227
527.64        17.78178
528.08        17.80913
528.52        17.84877
528.96        17.87993
529.40        17.87058
529.83        17.81163
530.27        17.71542
530.71        17.60389
531.15        17.51388
531.59        17.45462
532.03        17.41857
532.46        17.38615
532.90        17.32582
533.34        17.23609
533.78        17.13577
534.22        17.04736
534.66        17.00074
535.09        16.99837
535.53        17.02818
535.97        17.07883
536.41        17.12037
536.85        17.14059
537.28        17.19075
537.72        17.25323
538.16        17.19159
538.60        17.05923
539.04        17.09716
539.47        17.27617
539.91        17.35312
540.35        17.31714
540.79        17.31625
541.22        17.35446
541.66        17.38429
542.10        17.41124
542.54        17.42454
542.97        17.44816
543.41        17.58807
543.85        17.81653
544.29        17.98728
544.72        18.08248
545.16        18.20469
545.60        18.34834
546.04        18.45029
546.47        18.52243
546.91        18.61897
547.35        18.74608
547.79        18.89418
548.22         19.0548
548.66        19.21407
549.10        19.37376
549.53        19.58421
549.97        19.82043
550.41        19.99509
550.84        20.09384
551.28        20.16053
551.72        20.21341
552.15        20.26742
552.59        20.34462
553.03        20.43358
553.46        20.53305
553.90        20.66863
554.34        20.82799
554.77        20.98294
555.21        21.12988
555.65        21.27895
556.08        21.42187
556.52        21.55173
556.96        21.65512
557.39        21.73327
557.83        21.79517
558.27        21.81138
558.70        21.81333
559.14        21.90311
559.57        22.06242
560.01        22.18798
560.45        22.25771
560.88        22.31224
561.32         22.3594
561.75        22.36887
562.19        22.37741
562.63        22.38255
563.06        22.40377
563.50        22.58314
563.93        22.85522
564.37         22.8855
564.80        22.72837
565.24        22.83208
565.68        23.14919
566.11        23.29358
566.55        23.25908
566.98        23.23398
567.42        23.25985
567.85        23.39266
568.29        23.48202
568.72        23.63908
569.16        23.82084
569.60        23.99013
570.03        24.12939
570.47         24.2935
570.90        24.49047
571.34        24.47511
571.77        24.92674
572.21        24.82043
572.64        25.06147
573.08        24.99314
573.51        25.52008
573.95        25.55172
574.38        25.40265
574.82        25.26781
