SpectraSmart Spectrum 2.9.0.0
--------- Device Information -----------
Spectrum Name :  反射率_0
Saving Time :  2024/05/03 20:57:48
Spectro-Module Model Name : SE2030-DUVN
Spectro-Module Serial Number : OS361AC55029948
Wavelength Start : 200
Wavelength End : 1025
Wavelength Unit : Wavelength(nm)
Spectrum Unit : Reflectance(%)
-----------Spectrum Setting ------------
Integration Time : 20ms
Average : 10
Boxcar : 0
Background removal :  enabled
linearity correction :  enabled
SC :  disabled
Intensity correction :  disabled
DWT denoise :  enabled
savitzky-golay :  disabled
FFT :  disabled
Running average :  disabled
Kalman :  disabled
High pass :  disabled
---------------BEGIN--------------------
Wavelength(nm)             Reflectance(%)
200.29               0
200.75       -9.004679
201.21       -15.99342
201.67        513.7533
202.13        22.03819
202.58        16.53955
203.04        17.16051
203.50        18.71305
203.96        18.73426
204.42         16.0738
204.88        4.316413
205.34          415.32
205.80        55.66356
206.26        43.74483
206.72       -588.1057
207.18        42.84603
207.64        41.13365
208.10         40.7779
208.55        44.37868
209.01        84.44899
209.47        159.3835
209.93        69.79482
210.39        57.17694
210.85        54.51703
211.31        57.39855
211.77        65.63928
212.23        86.47612
212.69        136.1173
213.14        153.6478
213.60        72.74146
214.06        28.32166
214.52         12.1881
214.98        6.189469
215.44        3.800159
215.90        4.249575
216.36       -64.07166
216.81       -35.47303
217.27       -66.30646
217.73       -164.9666
218.19       -728.1561
218.65       -15943.16
219.11       -1195.065
219.57       -316.7401
220.02       -181.0912
220.48       -328.0194
220.94        430.0755
221.40        151.6314
221.86        111.4825
222.32        102.3848
222.77        104.7626
223.23        117.3923
223.69        139.8651
224.15        153.0974
224.61        143.4447
225.06        125.2662
225.52        114.7813
225.98        118.7649
226.44        136.6321
226.90        167.2041
227.36        206.7289
227.81        234.2162
228.27        234.1416
228.73         216.806
229.19        193.3636
229.65        172.3976
230.10        155.4877
230.56        142.0471
231.02        131.9975
231.48        125.9908
231.93        123.2077
232.39        123.2683
232.85        124.8452
233.31        126.4217
233.77        127.4506
234.22        127.9104
234.68        128.2034
235.14        129.1281
235.60        130.7928
236.05         133.198
236.51        134.5404
236.97        132.1889
237.43        126.0119
237.88        117.4816
238.34        109.6633
238.80        105.8862
239.26        106.8613
239.71        113.7158
240.17        127.8827
240.63        143.1219
241.08        148.4586
241.54        139.6526
242.00        126.0138
242.46        118.8045
242.91        119.6449
243.37        126.2329
243.83        139.8571
244.28        152.4886
244.74        145.4865
245.20        125.1094
245.66        100.1019
246.11        73.86387
246.57         49.1615
247.03        26.82325
247.48        11.34666
247.94        6.187702
248.40        10.22656
248.85        20.91994
249.31        35.43459
249.77        44.87661
250.22        45.99898
250.68        43.03176
251.14        40.16887
251.59        41.38836
252.05        48.15465
252.51        61.49791
252.96         83.2492
253.42        107.3971
253.88        122.2791
254.33        125.5276
254.79        120.8908
255.25        113.1987
255.70        105.9095
256.16        100.7778
256.62        97.57804
257.07        96.25463
257.53        96.74189
257.99        97.76581
258.44        98.72477
258.90        99.73917
259.35        100.0041
259.81        100.3252
260.27        99.94094
260.72        98.11693
261.18        95.85497
261.63        93.22398
262.09        91.34745
262.55        90.70049
263.00        90.99894
263.46        91.96198
263.91        92.97701
264.37        93.70039
264.83        93.85974
265.28        93.59195
265.74        92.94852
266.19        91.50686
266.65        89.57356
267.11        87.18955
267.56        84.87524
268.02        83.55784
268.47        83.24841
268.93        83.73244
269.38        84.40018
269.84        84.20449
270.30        82.94816
270.75        80.99684
271.21        79.00626
271.66        77.73351
272.12        77.33813
272.57        77.41159
273.03        77.61812
273.48        77.44803
273.94        76.77485
274.39         75.8032
274.85        74.57121
275.31        72.92648
275.76        70.94849
276.22        68.84643
276.67        66.97131
277.13        66.04958
277.58         65.9676
278.04        66.52785
278.49        67.09903
278.95        66.79505
279.40         65.4088
279.86        63.46439
280.31          61.364
280.77        59.85212
281.22        58.89764
281.68        58.34621
282.13        57.92569
282.59        57.41579
283.04        56.69051
283.50        55.89878
283.95        55.06186
284.41         54.2947
284.86        53.57234
285.32        52.90955
285.77        52.22226
286.22        51.50413
286.68         50.7878
287.13        50.04752
287.59        49.39275
288.04        48.85513
288.50        48.47205
288.95        48.17435
289.41        47.90687
289.86        47.51713
290.32        47.01481
290.77        46.40093
291.22         45.7837
291.68        45.29334
292.13        44.92359
292.59        44.66604
293.04        44.42039
293.50        44.06026
293.95        43.57017
294.40        43.02299
294.86        42.56565
295.31        42.37841
295.77        42.48553
296.22        42.79229
296.68        43.16514
297.13        43.39157
297.58        43.39423
298.04        43.27265
298.49        43.03349
298.95        42.74303
299.40        42.42144
299.85         42.0691
300.31        41.82048
300.76        41.85072
301.21        42.18366
301.67        42.75585
302.12        43.34739
302.58        43.64808
303.03        43.56769
303.48        43.21726
303.94        42.80212
304.39        42.55227
304.84        42.54892
305.30           42.71
305.75        42.90128
306.20         42.9609
306.66        42.86875
307.11        42.67055
307.57        42.47233
308.02        42.33945
308.47        42.31535
308.93        42.36654
309.38        42.43906
309.83        42.50653
310.29        42.54937
310.74        42.55988
311.19        42.53456
311.65        42.46313
312.10        42.33383
312.55        42.14942
313.00        41.91161
313.46         41.6298
313.91        41.30357
314.36         40.9607
314.82        40.63219
315.27         40.3476
315.72         40.1279
316.18        39.96792
316.63        39.86455
317.08        39.81622
317.53        39.80892
317.99        39.82509
318.44        39.84426
318.89        39.81392
319.35         39.7195
319.80        39.57689
320.25        39.39383
320.70        39.19362
321.16        38.98208
321.61        38.75845
322.06        38.54781
322.51        38.39522
322.97        38.30397
323.42        38.27527
323.87        38.24681
324.32        38.11985
324.78        37.87033
325.23        37.53709
325.68        37.19094
326.13        36.95877
326.59        36.86321
327.04        36.88979
327.49        36.96288
327.94        36.96761
328.39         36.8672
328.85         36.6832
329.30        36.48234
329.75        36.33551
330.20        36.26867
330.66        36.24419
331.11        36.24674
331.56        36.20778
332.01        36.11253
332.46        35.98581
332.92        35.84556
333.37        35.76455
333.82          35.744
334.27        35.76136
334.72        35.80146
335.17        35.84113
335.63        35.85474
336.08        35.86843
336.53        35.85215
336.98        35.77323
337.43        35.63292
337.88        35.44649
338.34        35.25635
338.79         35.1375
339.24        35.11058
339.69        35.16292
340.14        35.26567
340.59        35.36816
341.05         35.4484
341.50         35.5141
341.95        35.57454
342.40        35.65371
342.85        35.74964
343.30        35.84431
343.75        35.90297
344.20        35.87499
344.66        35.76828
345.11        35.61066
345.56        35.44959
346.01        35.35028
346.46        35.33583
346.91        35.38288
347.36        35.49678
347.81        35.68588
348.26        35.92877
348.72        36.20902
349.17        36.44979
349.62        36.54044
350.07        36.46082
350.52        36.24818
350.97        35.96689
351.42        35.72678
351.87        35.56313
352.32        35.44304
352.77        35.36443
353.22        35.31861
353.67        35.29426
354.13        35.31396
354.58         35.3106
355.03        35.20102
355.48        34.98147
355.93        34.68115
356.38        34.39354
356.83        34.27137
357.28        34.33788
357.73        34.53099
358.18        34.75629
358.63        34.85946
359.08        34.79281
359.53        34.60744
359.98        34.33271
360.43        34.01878
360.88         33.6946
361.33        33.34188
361.78        33.00973
362.23        32.77432
362.68        32.64382
363.13        32.60805
363.58        32.57903
364.03        32.40927
364.48        32.07399
364.93        31.61978
365.38        31.16132
365.83        30.87585
366.28        30.80118
366.73        30.88246
367.18        31.00978
367.63        31.00591
368.08        30.82263
368.53         30.5114
368.98        30.16842
369.43        29.93876
369.88        29.85387
370.33        29.86639
370.78        29.88539
371.23        29.76435
371.68        29.47161
372.13        29.06432
372.58        28.64436
373.03        28.35985
373.48        28.24181
373.93         28.2384
374.38         28.2696
374.83        28.20594
375.28        28.01043
375.72        27.72042
376.17        27.41062
376.62        27.14001
377.07        26.92992
377.52        26.76074
377.97        26.62062
378.42        26.49934
378.87        26.39037
379.32        26.29187
379.77        26.21492
380.22        26.16964
380.67        26.15009
381.11        26.15921
381.56        26.13368
382.01        25.99305
382.46        25.73384
382.91        25.38991
383.36        25.06366
383.81        24.90311
384.26        24.92852
384.71        25.09047
385.15        25.27754
385.60        25.32612
386.05        25.18808
386.50        24.91909
386.95        24.60478
387.40        24.37493
387.85        24.26533
388.29        24.22452
388.74        24.22477
389.19        24.17234
389.64        24.04856
390.09        23.88272
390.54         23.7279
390.98        23.64189
391.43        23.64515
391.88         23.7487
392.33        23.88422
392.78        23.83987
393.23        23.66397
393.67        23.62516
394.12        23.72025
394.57        23.69546
395.02        23.54483
395.47        23.39476
395.91        23.28615
396.36        23.21547
396.81        23.20755
397.26        23.27079
397.71        23.33486
398.15        23.32246
398.60        23.25343
399.05        23.01448
399.50        22.72714
399.95        22.82498
400.39        23.21427
400.84        23.20825
401.29        22.81544
401.74        22.60762
402.18        22.60709
402.63        22.49498
403.08        22.32314
403.53        22.14163
403.97        22.28048
404.42        22.41857
404.87        22.58315
405.32        22.66226
405.76        22.62636
406.21        22.51337
406.66        22.36977
407.11        22.27693
407.55        22.26173
408.00        22.29462
408.45        22.33893
408.90        22.32601
409.34        22.23736
409.79        22.09833
410.24        21.96179
410.68         21.8969
411.13        21.91894
411.58        22.00737
412.03        22.10272
412.47        22.10587
412.92        21.98855
413.37        21.79097
413.81        21.58805
414.26        21.50844
414.71        21.56204
415.15        21.72143
415.60        21.89693
416.05         21.9551
416.49         21.8582
416.94         21.6581
417.39        21.43606
417.83        21.30642
418.28        21.29856
418.73        21.37109
419.17        21.48534
419.62        21.56492
420.07        21.58406
420.51         21.5581
420.96         21.5073
421.41        21.44227
421.85        21.36153
422.30        21.27465
422.74        21.17218
423.19         21.1032
423.64        21.05671
424.08        20.99969
424.53        20.93114
424.98        20.93653
425.42        21.03526
425.87        21.13407
426.31        21.22187
426.76        21.40981
427.21        21.62247
427.65        21.56631
428.10        21.31402
428.54        21.20723
428.99        21.28356
429.44        21.48303
429.88        21.66365
430.33        21.48968
430.77        21.06311
431.22        20.88082
431.66        20.97716
432.11         21.1778
432.56         21.4059
433.00        21.52422
433.45        21.39002
433.89        21.37258
434.34        20.75049
434.78        20.70793
435.23        21.10255
435.67        21.18223
436.12        21.00289
436.57        20.92673
437.01        20.99817
437.46        21.04177
437.90        21.05344
438.35        21.08217
438.79        21.10839
439.24         21.0877
439.68        21.02855
440.13        21.00388
440.57        20.99299
441.02        20.93566
441.46        20.83095
441.91        20.69185
442.35        20.55673
442.80        20.62556
443.24        20.83456
443.69         20.9266
444.13        20.87915
444.58        20.87538
445.02        20.90941
445.47        20.86304
445.91        20.75303
446.36        20.68402
446.80        20.66324
447.24        20.66764
447.69        20.69092
448.13        20.72198
448.58        20.75659
449.02        20.79406
449.47        20.83299
449.91        20.85496
450.36         20.8624
450.80        20.85388
451.25        20.83453
451.69        20.80541
452.13         20.7709
452.58         20.7304
453.02        20.69114
453.47        20.67425
453.91        20.68085
454.36        20.70679
454.80        20.72432
455.24        20.72095
455.69         20.7017
456.13        20.60012
456.58           20.45
457.02        20.54394
457.46        20.55771
457.91        20.54624
458.35         20.4235
458.79        20.42016
459.24        20.50813
459.68        20.45305
460.13         20.3061
460.57         20.2491
461.01        20.30431
461.46        20.37126
461.90        20.42123
462.34        20.43712
462.79        20.40401
463.23        20.32869
463.68        20.24875
464.12        20.20781
464.56        20.21416
465.01        20.31049
465.45        20.42503
465.89        20.39555
466.34        20.27056
466.78        20.26844
467.22        20.39865
467.67        20.48823
468.11        20.51607
468.55        20.49793
468.99         20.4513
469.44        20.43194
469.88        20.44901
470.32        20.45152
470.77        20.44332
471.21         20.4648
471.65         20.5123
472.10        20.57277
472.54        20.62099
472.98        20.62858
473.42        20.59173
473.87        20.53111
474.31        20.45385
474.75        20.39049
475.20        20.35874
475.64        20.33986
476.08         20.3346
476.52        20.37301
476.97        20.45658
477.41        20.52062
477.85        20.52679
478.29        20.80531
478.74        20.65637
479.18        20.79155
479.62        20.97025
480.06        21.03803
480.50        20.97954
480.95        20.89629
481.39        20.82743
481.83        20.80181
482.27        20.84638
482.72        20.97834
483.16        21.13626
483.60        21.23671
484.04        21.26678
484.48        21.13621
484.93        20.99454
485.37        21.22221
485.81        21.77491
486.25        21.96966
486.69        22.03296
487.14        21.89122
487.58        21.48803
488.02         21.5802
488.46        22.18065
488.90        21.65539
489.34         21.7403
489.79        21.76534
490.23        22.21091
490.67        22.48141
491.11        22.52805
491.55        22.46029
491.99        22.32925
492.43        22.29934
492.88        22.39432
493.32        22.51842
493.76        22.63592
494.20        22.75023
494.64        22.85492
495.08        22.95181
495.52        23.04696
495.96        23.16476
496.41        23.30604
496.85         23.4163
497.29        23.50986
497.73        23.69696
498.17        23.93318
498.61         24.0419
499.05        24.01652
499.49        23.94162
499.93        23.88101
500.37        23.95242
500.82        24.13287
501.26         24.2412
501.70        24.26234
502.14        24.32146
502.58        24.42005
503.02        24.49297
503.46         24.5386
503.90        24.57786
504.34        24.61625
504.78          24.663
505.22        24.72249
505.66        24.78265
506.10        24.83373
506.54        24.91803
506.98        25.04433
507.42        25.10309
507.86        25.05417
508.30        25.37936
508.74        25.18907
509.18         25.2058
509.62        25.19331
510.06        25.22209
510.50        25.29579
510.94        25.40793
511.38        25.53353
511.82        25.60509
512.26        25.60961
512.70        25.56767
513.14        25.50598
513.58        25.46726
514.02        25.46367
514.46         25.4795
514.90        25.50667
515.34        25.53179
515.78        25.54984
516.22        25.57158
516.66        25.58712
517.10        25.57878
517.54        25.54683
517.98        25.49336
518.42        25.45043
518.86        25.47016
519.30        25.55994
519.74        25.70445
520.18        25.85345
520.62        25.92452
521.06        25.89823
521.50        25.79714
521.93        25.67403
522.37        25.61862
522.81        25.64875
523.25        25.73566
523.69        25.83052
524.13        25.85587
524.57        25.79575
525.01        25.68245
525.45        25.55447
525.89        25.47103
526.32        25.44761
526.76        25.46379
527.20        25.50525
527.64        25.55311
528.08        25.59548
528.52        25.63885
528.96        25.66401
529.40        25.64013
529.83        25.56093
530.27        25.43921
530.71        25.30832
531.15         25.2252
531.59        25.20247
532.03        25.22853
532.46        25.26673
532.90        25.25661
533.34         25.1892
533.78        25.09037
534.22         24.9979
534.66        24.96651
535.09              25
535.53        25.07516
535.97        25.16552
536.41        25.21146
536.85        25.19445
537.28        25.20183
537.72        25.21781
538.16        25.05918
538.60        24.81409
539.04        24.83148
539.47        25.07463
539.91        25.20102
540.35        25.19028
540.79        25.24765
541.22        25.36055
541.66        25.42983
542.10        25.45348
542.54        25.42289
542.97        25.37753
543.41        25.47945
543.85        25.69519
544.29        25.81475
544.72        25.82915
545.16         25.9063
545.60        26.04226
546.04        26.14468
546.47        26.21656
546.91        26.31082
547.35        26.42985
547.79        26.56553
548.22        26.71776
548.66        26.88495
549.10        27.07129
549.53         27.3391
549.97        27.63778
550.41        27.82257
550.84        27.86954
551.28        27.84811
551.72        27.80156
552.15        27.77805
552.59        27.81375
553.03        27.88463
553.46        27.97447
553.90        28.09412
554.34        28.22214
554.77         28.3309
555.21        28.42678
555.65        28.54134
556.08        28.67051
556.52        28.79861
556.96        28.90742
557.39        28.99798
557.83        29.07803
558.27        29.10714
558.70        29.11675
559.14        29.22623
559.57        29.40879
560.01        29.53299
560.45        29.57894
560.88        29.61821
561.32        29.66368
561.75        29.66091
562.19        29.65849
562.63        29.66512
563.06        29.69788
563.50        29.92158
563.93        30.23851
564.37        30.21234
564.80        29.91873
565.24        29.94241
565.68        30.24768
566.11        30.38096
566.55        30.34302
566.98        30.36113
567.42        30.45054
567.85        30.64015
568.29        30.72076
568.72        30.83086
569.16        30.92697
569.60        31.15274
570.03        31.18325
570.47         31.4376
570.90        31.55054
571.34        31.59574
571.77        32.01522
572.21        31.79877
572.64        32.02886
573.08        31.84226
573.51        32.54609
573.95        32.56053
574.38        32.31116
574.82        32.22856
