SpectraSmart Spectrum 2.9.0.0
--------- Device Information -----------
Spectrum Name :  反射率_0
Saving Time :  2024/05/03 20:58:27
Spectro-Module Model Name : SE2030-DUVN
Spectro-Module Serial Number : OS361AC55029948
Wavelength Start : 200
Wavelength End : 1025
Wavelength Unit : Wavelength(nm)
Spectrum Unit : Reflectance(%)
-----------Spectrum Setting ------------
Integration Time : 20ms
Average : 10
Boxcar : 0
Background removal :  enabled
linearity correction :  enabled
SC :  disabled
Intensity correction :  disabled
DWT denoise :  enabled
savitzky-golay :  disabled
FFT :  disabled
Running average :  disabled
Kalman :  disabled
High pass :  disabled
---------------BEGIN--------------------
Wavelength(nm)             Reflectance(%)
200.29               0
200.75        71.12707
201.21        115.0366
201.67       -2777.537
202.13        -71.2799
202.58        -28.7486
203.04       -12.55976
203.50       -5.712331
203.96       -7.623203
204.42       -21.86368
204.88       -85.52053
205.34        2217.767
205.80        223.6224
206.26        208.3669
206.72        28041.52
207.18       -29.89047
207.64       -11.30202
208.10        -47.2128
208.55       -198.2088
209.01       -1720.295
209.47       -2485.004
209.93        -301.068
210.39       -79.19394
210.85       -18.65067
211.31       0.5187888
211.77        3.569316
212.23       -5.689283
212.69       -45.22099
213.14       -103.4203
213.60       -79.59996
214.06        -48.3084
214.52       -34.23584
214.98       -32.53392
215.44       -41.96166
215.90        -86.3483
216.36        505.9182
216.81        69.61083
217.27        30.85093
217.73       -11.26891
218.19       -190.9884
218.65       -4511.986
219.11       -233.7405
219.57      0.08605066
220.02        48.99208
220.48        103.2833
220.94       -54.21383
221.40         10.7122
221.86        22.32766
222.32        26.62606
222.77        28.81747
223.23        31.10453
223.69        33.29217
224.15        32.32564
224.61        28.12316
225.06        23.78659
225.52        21.55224
225.98        22.00056
226.44        24.94314
226.90        30.41869
227.36        38.96902
227.81        48.56501
228.27        55.57346
228.73        59.78597
229.19        60.63601
229.65        58.25999
230.10        53.94434
230.56        48.90957
231.02        44.90917
231.48        43.98647
231.93        45.75676
232.39         49.3124
232.85        52.99761
233.31        54.50937
233.77        53.47281
234.22        50.60328
234.68        47.27477
235.14        45.81918
235.60        46.93274
236.05        50.05244
236.51        53.87803
236.97        55.79144
237.43        54.84997
237.88        52.25534
238.34         49.2345
238.80        46.91735
239.26         45.4192
239.71        46.00318
240.17         45.9143
240.63        49.04616
241.08        54.56151
241.54        60.72174
242.00        64.96259
242.46        66.85905
242.91        67.08852
243.37        63.80704
243.83        53.71695
244.28        33.15319
244.74        8.418589
245.20       -9.626734
245.66       -17.28743
246.11       -20.25929
246.57       -21.47491
247.03       -19.93305
247.48       -17.20355
247.94       -15.54507
248.40       -14.93884
248.85       -15.78917
249.31       -16.98293
249.77       -16.62384
250.22        -14.5959
250.68       -12.03842
251.14       -9.665037
251.59       -7.776377
252.05       -5.599351
252.51       -1.731538
252.96        5.677229
253.42        18.25947
253.88        32.77887
254.33        44.56776
254.79        51.41938
255.25        53.55165
255.70        53.12362
256.16        52.11312
256.62        51.51316
257.07        52.03471
257.53        53.69488
257.99        55.64231
258.44         57.1474
258.90        57.87003
259.35        57.44637
259.81        56.70764
260.27        55.57816
260.72         54.0144
261.18        52.52034
261.63        50.94672
262.09        49.71919
262.55        48.91858
263.00        48.39094
263.46        48.08475
263.91        47.75463
264.37        47.33344
264.83        46.74896
265.28         46.0685
265.74        45.33052
266.19        44.34242
266.65        43.23397
267.11        41.99424
267.56        40.85615
268.02        40.24354
268.47        40.13388
268.93        40.40712
269.38        40.70515
269.84        40.42052
270.30        39.46108
270.75        38.06001
271.21        36.63839
271.66        35.69149
272.12        35.32934
272.57        35.33173
273.03        35.49981
273.48        35.54068
273.94        35.35531
274.39        35.03954
274.85        34.59797
275.31        33.93525
275.76        33.07306
276.22        32.09785
276.67        31.17539
277.13        30.64939
277.58        30.47529
278.04        30.57754
278.49        30.66338
278.95        30.33679
279.40        29.52243
279.86        28.47776
280.31        27.42491
280.77        26.75049
281.22        26.43054
281.68        26.36699
282.13         26.3779
282.59        26.27064
283.04        25.97531
283.50        25.59022
283.95         25.1729
284.41        24.83075
284.86        24.57441
285.32        24.38788
285.77        24.22715
286.22        24.09188
286.68        23.98262
287.13        23.87954
287.59        23.80241
288.04        23.72439
288.50        23.65976
288.95        23.58895
289.41        23.51419
289.86        23.39852
290.32        23.26364
290.77        23.10478
291.22        22.97363
291.68        22.93254
292.13        22.98455
292.59        23.14078
293.04        23.34859
293.50        23.53666
293.95         23.6849
294.40        23.82095
294.86        24.02473
295.31         24.4156
295.77        25.00724
296.22        25.73771
296.68        26.49973
297.13        27.11269
297.58        27.51164
298.04        27.77043
298.49        27.92317
298.95        28.06183
299.40         28.2193
299.85        28.38655
300.31        28.64602
300.76        29.09522
301.21        29.74594
301.67        30.56648
302.12        31.40602
302.58         32.0435
303.03        32.41191
303.48        32.57793
303.94        32.69429
304.39         32.9413
304.84        33.37717
305.30         33.9325
305.75        34.48249
306.20        34.86789
306.66        35.06092
307.11        35.10197
307.57        35.08647
308.02        35.08452
308.47        35.14218
308.93        35.23487
309.38        35.32552
309.83        35.40092
310.29        35.45134
310.74        35.47663
311.19        35.47792
311.65         35.4478
312.10        35.37813
312.55         35.2727
313.00        35.13068
313.46        34.95745
313.91         34.7478
314.36        34.51688
314.82        34.29145
315.27        34.09865
315.72         33.9531
316.18        33.85022
316.63        33.76694
317.08         33.6695
317.53        33.54587
317.99        33.39495
318.44        33.24181
318.89        33.11409
319.35        33.01437
319.80        32.92978
320.25        32.82542
320.70        32.65251
321.16        32.39492
321.61        32.07521
322.06        31.72342
322.51        31.39436
322.97        31.10743
323.42        30.86059
323.87        30.63316
324.32        30.39313
324.78        30.12716
325.23        29.85317
325.68        29.58644
326.13        29.35536
326.59        29.15549
327.04        28.99299
327.49        28.83235
327.94        28.62827
328.39        28.36905
328.85        28.05926
329.30        27.74683
329.75         27.4846
330.20        27.29029
330.66        27.14059
331.11        27.01652
331.56        26.84747
332.01         26.6179
332.46        26.35044
332.92        26.06791
333.37        25.84335
333.82        25.68344
334.27        25.56515
334.72        25.47604
335.17        25.39611
335.63        25.30454
336.08        25.22491
336.53        25.12648
336.98        24.96883
337.43        24.75097
337.88        24.48702
338.34        24.22853
338.79        24.06346
339.24        24.01204
339.69        24.05185
340.14        24.13311
340.59        24.17304
341.05         24.1437
341.50        24.06463
341.95        23.96463
342.40        23.89642
342.85        23.87253
343.30         23.8735
343.75        23.86352
344.20        23.79048
344.66        23.65283
345.11        23.46772
345.56        23.28468
346.01        23.17221
346.46        23.14768
346.91         23.1918
347.36        23.26345
347.81        23.29869
348.26         23.2795
348.72        23.22178
349.17        23.15477
349.62        23.13306
350.07        23.16456
350.52        23.22611
350.97        23.27343
351.42        23.23999
351.87        23.11373
352.32        22.92095
352.77        22.70569
353.22        22.53863
353.67        22.43915
354.13        22.38862
354.58        22.35427
355.03        22.30306
355.48        22.22484
355.93        22.14034
356.38          22.044
356.83        21.92527
357.28        21.78679
357.73        21.62312
358.18        21.47406
358.63        21.40775
359.08        21.43005
359.53          21.517
359.98        21.59137
360.43        21.53262
360.88        21.31636
361.33        20.97958
361.78        20.60561
362.23        20.32255
362.68        20.16565
363.13        20.10662
363.58        20.07868
364.03        19.97366
364.48        19.77094
364.93        19.50922
365.38        19.27037
365.83        19.17625
366.28        19.24568
366.73        19.42979
367.18        19.63064
367.63         19.6939
368.08        19.57808
368.53        19.32909
368.98        19.02955
369.43        18.80613
369.88        18.69213
370.33         18.6509
370.78         18.6278
371.23        18.53284
371.68        18.34569
372.13        18.10629
372.58        17.86755
373.03        17.70217
373.48        17.62517
373.93        17.60638
374.38        17.60794
374.83        17.57217
375.28        17.47864
375.72        17.33838
376.17        17.18406
376.62        17.03016
377.07        16.88618
377.52        16.75074
377.97         16.6237
378.42           16.51
378.87        16.41378
379.32        16.33235
379.77        16.27977
380.22        16.27375
380.67        16.30772
381.11        16.37434
381.56        16.41967
382.01        16.36723
382.46         16.2045
382.91        15.96129
383.36        15.70071
383.81        15.51358
384.26        15.42117
384.71        15.40056
385.15        15.40829
385.60        15.38874
386.05        15.31827
386.50        15.21381
386.95        15.10674
387.40        15.04204
387.85        15.02789
388.29        15.04134
388.74        15.05654
389.19        15.00362
389.64        14.87433
390.09        14.68894
390.54        14.51262
390.98        14.43477
391.43        14.47623
391.88        14.62803
392.33        14.80576
392.78        14.81455
393.23        14.67423
393.67        14.57143
394.12        14.54283
394.57        14.48921
395.02        14.41823
395.47        14.38734
395.91        14.38522
396.36        14.34823
396.81        14.27883
397.26        14.20659
397.71        14.12664
398.15        14.04568
398.60        13.98851
399.05        13.86881
399.50        13.73453
399.95        13.81329
400.39        14.04031
400.84        14.00953
401.29         13.7444
401.74        13.61752
402.18        13.64811
402.63        13.63455
403.08        13.58562
403.53        13.49914
403.97        13.56817
404.42        13.60412
404.87        13.64536
405.32        13.65709
405.76        13.62916
406.21        13.57579
406.66        13.50204
407.11        13.42085
407.55        13.34163
408.00        13.25806
408.45        13.17857
408.90        13.11564
409.34        13.07332
409.79        13.04985
410.24        13.04149
410.68        13.03731
411.13        13.03499
411.58        13.03742
412.03        13.03554
412.47        13.01801
412.92        12.97973
413.37         12.9232
413.81        12.86874
414.26        12.86035
414.71        12.89702
415.15        12.97492
415.60        13.04763
416.05        13.04623
416.49         12.9563
416.94        12.80437
417.39        12.64847
417.83        12.57165
418.28        12.59021
418.73        12.67502
419.17        12.78253
419.62        12.83202
420.07        12.80037
420.51         12.7111
420.96        12.59602
421.41        12.49198
421.85        12.40658
422.30        12.33608
422.74         12.2703
423.19        12.23263
423.64        12.21167
424.08        12.19136
424.53        12.16143
424.98        12.15626
425.42        12.18515
425.87        12.20061
426.31        12.20732
426.76        12.29104
427.21        12.41165
427.65        12.39155
428.10        12.27163
428.54        12.24499
428.99        12.32839
429.44        12.49352
429.88        12.63323
430.33        12.51322
430.77        12.19097
431.22        11.96557
431.66        11.90307
432.11        11.95761
432.56        12.09879
433.00         12.3078
433.45        12.42928
433.89        12.35235
434.34        11.72916
434.78        11.65613
435.23        12.03518
435.67        12.12522
436.12        11.93244
436.57         11.8771
437.01        11.96552
437.46        11.97826
437.90        11.90671
438.35        11.81924
438.79        11.73335
439.24        11.66275
439.68        11.62137
440.13        11.63237
440.57        11.66706
441.02        11.66581
441.46        11.61713
441.91        11.53614
442.35        11.44752
442.80        11.46772
443.24        11.56377
443.69        11.59102
444.13        11.54276
444.58        11.53051
445.02        11.55372
445.47        11.54498
445.91        11.50834
446.36        11.49217
446.80        11.49677
447.24         11.5088
447.69         11.5264
448.13         11.5465
448.58        11.56668
449.02        11.58595
449.47         11.5969
449.91        11.58081
450.36        11.53921
450.80        11.47667
451.25        11.41024
451.69        11.36257
452.13         11.3411
452.58        11.34089
453.02        11.35104
453.47        11.35889
453.91        11.35939
454.36        11.35591
454.80        11.34881
455.24        11.35412
455.69        11.37855
456.13        11.37584
456.58        11.34575
457.02        11.42351
457.46        11.42316
457.91         11.3823
458.35        11.27135
458.79        11.24367
459.24        11.28985
459.68        11.27338
460.13        11.20593
460.57        11.16012
461.01        11.14616
461.46        11.11876
461.90        11.08553
462.34        11.07102
462.79        11.07438
463.23         11.0847
463.68        11.10311
464.12        11.12062
464.56         11.1315
465.01        11.16984
465.45        11.20165
465.89        11.14388
466.34        11.02921
466.78        10.97529
467.22        10.99706
467.67        11.02161
468.11        11.04219
468.55        11.06238
468.99        11.08022
469.44        11.10589
469.88        11.13808
470.32        11.15548
470.77        11.15969
471.21        11.17222
471.65        11.19372
472.10         11.2151
472.54        11.23509
472.98        11.25973
473.42        11.28772
473.87        11.32224
474.31        11.34532
474.75        11.33952
475.20        11.30968
475.64        11.25901
476.08        11.20725
476.52        11.20031
476.97        11.24798
477.41        11.30542
477.85        11.34745
478.29        11.54948
478.74        11.51726
479.18        11.64833
479.62         11.7998
480.06        11.86971
480.50        11.84688
480.95        11.79204
481.39        11.74055
481.83        11.73115
482.27        11.78527
482.72        11.91125
483.16        12.06367
483.60        12.16668
484.04        12.19943
484.48        12.15667
484.93        12.15602
485.37        12.32035
485.81        12.60589
486.25        13.05635
486.69        12.99468
487.14        12.82551
487.58        13.11969
488.02        12.87158
488.46        13.12237
488.90        13.04277
489.34        12.78465
489.79         12.8499
490.23        13.15522
490.67        13.44101
491.11        13.61314
491.55        13.59784
491.99        13.46192
492.43        13.48016
492.88        13.67741
493.32        13.87676
493.76        14.02998
494.20        14.15967
494.64        14.25716
495.08        14.31792
495.52        14.36446
495.96        14.44478
496.41        14.56795
496.85        14.69256
497.29        14.81797
497.73        14.99664
498.17        15.19631
498.61        15.31301
499.05        15.34177
499.49        15.33403
499.93        15.33163
500.37        15.40895
500.82         15.5598
501.26        15.68191
501.70        15.76576
502.14        15.88543
502.58         16.0289
503.02        16.13277
503.46        16.19066
503.90        16.22315
504.34        16.24063
504.78        16.26112
505.22        16.29294
505.66        16.32478
506.10        16.35417
506.54         16.4149
506.98        16.51344
507.42        16.57888
507.86         16.5752
508.30        16.80401
508.74        16.67432
509.18        16.67005
509.62        16.64869
510.06        16.68051
510.50        16.77148
510.94         16.9059
511.38         17.0548
511.82         17.1526
512.26        17.18292
512.70        17.16765
513.14         17.1214
513.58        17.06813
514.02        17.02013
514.46        16.96853
514.90        16.93138
515.34         16.9384
515.78        16.99202
516.22        17.08697
516.66        17.18413
517.10        17.21871
517.54        17.17834
517.98        17.08089
518.42        16.97238
518.86        16.92776
519.30        16.96428
519.74        17.05877
520.18        17.16767
520.62        17.22026
521.06        17.19677
521.50        17.11807
521.93        17.01955
522.37        16.95831
522.81        16.94756
523.25        16.96871
523.69         16.9916
524.13        16.96968
524.57        16.89477
525.01        16.78784
525.45        16.67821
525.89        16.61036
526.32        16.59419
526.76        16.61365
527.20        16.65084
527.64        16.67954
528.08        16.68938
528.52        16.68951
528.96        16.67451
529.40         16.6363
529.83        16.57463
530.27        16.49324
530.71        16.41258
531.15        16.36787
531.59        16.36454
532.03        16.39449
532.46        16.42794
532.90        16.41583
533.34        16.35119
533.78         16.2547
534.22        16.15758
534.66        16.10519
535.09        16.10361
535.53        16.13631
535.97        16.18613
536.41        16.21348
536.85        16.20626
537.28        16.22185
537.72        16.24916
538.16        16.16738
538.60        16.03068
539.04        16.06155
539.47        16.23892
539.91        16.34443
540.35        16.36559
540.79        16.43731
541.22        16.54239
541.66        16.60157
542.10         16.6132
542.54        16.57659
542.97        16.54027
543.41        16.64557
543.85        16.87517
544.29        17.07829
544.72         17.2153
545.16        17.34873
545.60        17.46559
546.04        17.51859
546.47        17.53695
546.91        17.59963
547.35        17.72064
547.79        17.88175
548.22        18.06339
548.66        18.23576
549.10        18.39574
549.53        18.59604
549.97        18.81932
550.41        18.99285
550.84        19.10372
551.28        19.18659
551.72        19.25055
552.15        19.29847
552.59         19.3493
553.03        19.39838
553.46        19.44917
553.90         19.5317
554.34         19.6387
554.77         19.7442
555.21        19.85059
555.65        19.97665
556.08        20.11468
556.52        20.25317
556.96        20.37284
557.39        20.46362
557.83        20.53057
558.27        20.55111
558.70        20.54947
559.14        20.61359
559.57        20.72744
560.01        20.79681
560.45         20.8228
560.88        20.86865
561.32        20.94238
561.75        21.02639
562.19         21.1244
562.63        21.13322
563.06        21.08714
563.50        21.25285
563.93        21.56104
564.37        21.58294
564.80        21.37133
565.24          21.413
565.68        21.68284
566.11        21.82052
566.55        21.82373
566.98        21.87197
567.42        21.97344
567.85        22.12448
568.29        22.17814
568.72        22.26781
569.16        22.37918
569.60        22.52578
570.03         22.7023
570.47        22.91325
570.90        23.12526
571.34        23.23624
571.77         23.5393
572.21        23.39899
572.64        23.59982
573.08        23.46513
573.51        23.96512
573.95        24.05137
574.38         24.0063
574.82         23.8554
