SpectraSmart Spectrum 2.9.0.0
--------- Device Information -----------
Spectrum Name :  反射率_0
Saving Time :  2024/05/03 20:45:04
Spectro-Module Model Name : SE2030-DUVN
Spectro-Module Serial Number : OS361AC55029948
Wavelength Start : 200
Wavelength End : 1025
Wavelength Unit : Wavelength(nm)
Spectrum Unit : Reflectance(%)
-----------Spectrum Setting ------------
Integration Time : 20ms
Average : 10
Boxcar : 0
Background removal :  enabled
linearity correction :  enabled
SC :  disabled
Intensity correction :  disabled
DWT denoise :  enabled
savitzky-golay :  disabled
FFT :  disabled
Running average :  disabled
Kalman :  disabled
High pass :  disabled
---------------BEGIN--------------------
Wavelength(nm)             Reflectance(%)
200.29               0
200.75        94.98843
201.21        132.2531
201.67       -2359.322
202.13       -43.63843
202.58       -18.72626
203.04       -16.61385
203.50        -20.6692
203.96        -28.1571
204.42       -42.52931
204.88       -95.83825
205.34        1799.372
205.80        163.9328
206.26        164.6235
206.72        30464.13
207.18       -77.76521
207.64       -40.32841
208.10       -40.93366
208.55       -76.21198
209.01       -459.8389
209.47       -587.9685
209.93       -72.31693
210.39       -23.30787
210.85       -10.19355
211.31       -4.991752
211.77       -1.832937
212.23        2.209225
212.69        9.027108
213.14        7.806182
213.60       -7.678372
214.06       -14.24842
214.52        -16.7271
214.98       -18.99865
215.44       -23.54749
215.90       -41.03153
216.36        182.6989
216.81        16.45794
217.27      -0.5827688
217.73       -25.80379
218.19       -139.1573
218.65        -2475.76
219.11       -73.21317
219.57        37.43925
220.02        62.62027
220.48        112.7475
220.94       -60.19382
221.40        9.028568
221.86        19.73458
222.32        20.67193
222.77        16.85782
223.23        8.524966
223.69       -4.658176
224.15       -12.39718
224.61       -6.384674
225.06        4.586605
225.52        13.54774
225.98        18.81973
226.44        21.76583
226.90        23.80779
227.36        25.02822
227.81        24.95282
228.27        23.69078
228.73        21.85372
229.19        20.20492
229.65        19.34966
230.10        19.09933
230.56        19.21192
231.02        19.70772
231.48        20.69246
231.93        22.00269
232.39         23.6027
232.85         24.8912
233.31        24.95663
233.77        23.78742
234.22        21.72969
234.68        19.68885
235.14        19.21545
235.60        20.75485
236.05        23.90344
236.51        27.98022
236.97        31.30376
237.43        32.92706
237.88        33.45111
238.34        33.09722
238.80        31.94074
239.26        29.85891
239.71        28.23738
240.17        22.90017
240.63        20.26647
241.08        23.03229
241.54        31.13175
242.00        39.63988
242.46        44.85355
242.91        47.22347
243.37        46.50573
243.83        39.74875
244.28        21.49565
244.74       -4.925292
245.20       -29.27177
245.66       -42.09049
246.11       -44.00116
246.57       -39.10695
247.03       -28.30859
247.48       -16.73067
247.94       -9.653865
248.40       -6.619377
248.85       -6.653865
249.31       -6.260587
249.77      -0.2031451
250.22        10.10829
250.68        20.47555
251.14        28.43713
251.59        33.33614
252.05        36.18642
252.51        37.68526
252.96        38.53513
253.42         40.3137
253.88        43.17968
254.33        45.86008
254.79         46.7836
255.25        44.76708
255.70        41.62332
256.16        39.20018
256.62        38.12101
257.07        38.82732
257.53        40.98524
257.99        43.57716
258.44        45.71388
258.90        46.80909
259.35        46.59692
259.81        46.00138
260.27         45.0506
260.72        43.80348
261.18        42.68734
261.63         41.5089
262.09        40.71294
262.55         40.5052
263.00        40.71246
263.46        41.22104
263.91         41.5866
264.37         41.4082
264.83          40.616
265.28        39.43188
265.74        38.16248
266.19        37.00129
266.65        36.09671
267.11        35.30479
267.56        34.64281
268.02        34.21418
268.47        33.95898
268.93        33.88444
269.38        33.79954
269.84         33.3738
270.30        32.58567
270.75        31.54382
271.21        30.56921
271.66        30.04229
272.12        30.02436
272.57        30.34461
273.03        30.73742
273.48        30.80021
273.94        30.43218
274.39        29.76661
274.85        28.97087
275.31        28.20059
275.76        27.50806
276.22         26.8859
276.67        26.33168
277.13        25.94048
277.58        25.64966
278.04        25.46926
278.49        25.26141
278.95        24.87228
279.40        24.27231
279.86        23.59364
280.31        22.93275
280.77        22.50895
281.22        22.28276
281.68        22.21479
282.13        22.17893
282.59        22.04784
283.04        21.78227
283.50        21.45588
283.95        21.12702
284.41        20.89741
284.86        20.77932
285.32        20.75798
285.77        20.78711
286.22        20.85238
286.68        20.94137
287.13        21.02653
287.59        21.11943
288.04        21.19519
288.50        21.26397
288.95        21.30817
289.41        21.31913
289.86        21.24383
290.32        21.11038
290.77        20.93662
291.22        20.79973
291.68        20.79875
292.13        20.94716
292.59        21.23917
293.04        21.62311
293.50        22.02353
293.95        22.40232
294.40        22.77892
294.86        23.18892
295.31        23.69042
295.77         24.2961
296.22        24.97083
296.68        25.66413
297.13        26.29073
297.58        26.81174
298.04        27.26786
298.49        27.66237
298.95        28.04119
299.40        28.41526
299.85        28.78241
300.31        29.20754
300.76        29.76148
301.21        30.45366
301.67        31.25936
302.12        32.05175
302.58        32.65122
303.03        33.00684
303.48        33.18329
303.94        33.32741
304.39        33.60642
304.84        34.07605
305.30        34.67073
305.75        35.27491
306.20        35.74139
306.66        36.04031
307.11        36.20431
307.57        36.30596
308.02        36.38093
308.47        36.47499
308.93        36.57915
309.38        36.68643
309.83        36.83226
310.29        37.01554
310.74        37.21466
311.19        37.40778
311.65        37.55029
312.10        37.61575
312.55        37.61503
313.00        37.54148
313.46        37.39333
313.91        37.17117
314.36        36.89875
314.82        36.62435
315.27        36.40988
315.72        36.28047
316.18        36.22263
316.63        36.20941
317.08        36.19788
317.53        36.16856
317.99        36.12298
318.44        36.06495
318.89        35.98525
319.35        35.88065
319.80        35.74674
320.25        35.58545
320.70        35.40989
321.16        35.21726
321.61          35.014
322.06        34.79386
322.51        34.54852
322.97        34.28114
323.42        34.01326
323.87        33.75262
324.32        33.51355
324.78        33.29649
325.23        33.10204
325.68        32.93506
326.13        32.80916
326.59        32.70763
327.04        32.64035
327.49        32.55689
327.94        32.38784
328.39        32.11722
328.85        31.75444
329.30        31.36777
329.75        31.04156
330.20        30.80863
330.66        30.64281
331.11        30.52615
331.56         30.3819
332.01        30.19025
332.46        29.97365
332.92        29.75041
333.37        29.58874
333.82        29.48882
334.27        29.42595
334.72        29.37553
335.17        29.30054
335.63        29.17858
336.08        29.04144
336.53        28.88181
336.98         28.7009
337.43        28.50643
337.88        28.29784
338.34        28.10431
338.79        27.97705
339.24        27.92337
339.69        27.93434
340.14         27.9626
340.59        27.92848
341.05        27.81428
341.50        27.64464
341.95        27.46973
342.40        27.37859
342.85        27.38714
343.30        27.45713
343.75        27.53707
344.20         27.5458
344.66        27.46942
345.11        27.33846
345.56        27.17401
346.01        27.00275
346.46        26.84559
346.91        26.69367
347.36        26.58924
347.81         26.6011
348.26        26.72977
348.72        26.94947
349.17        27.17193
349.62        27.26252
350.07        27.18853
350.52        26.98677
350.97        26.72386
351.42        26.51226
351.87        26.38295
352.32        26.29865
352.77        26.22819
353.22        26.12229
353.67        25.96777
354.13        25.80031
354.58        25.61414
355.03        25.41352
355.48        25.21197
355.93        25.01697
356.38        24.85604
356.83        24.77474
357.28        24.77642
357.73        24.83556
358.18        24.92967
358.63         25.0206
359.08        25.08636
359.53        25.13325
359.98        25.12523
360.43        25.01303
360.88        24.79462
361.33        24.47997
361.78        24.14961
362.23        23.92838
362.68        23.84251
363.13        23.86879
363.58        23.90638
364.03         23.7898
364.48         23.4899
364.93        23.06001
365.38         22.6361
365.83        22.42556
366.28        22.46886
366.73        22.70068
367.18        22.97007
367.63        23.03303
368.08        22.82894
368.53        22.43163
368.98        21.99142
369.43        21.73779
369.88        21.72347
370.33         21.8793
370.78        22.07125
371.23        22.07531
371.68        21.83608
372.13        21.43435
372.58        21.00726
373.03        20.75904
373.48        20.73421
373.93        20.85832
374.38        21.02568
374.83        21.06391
375.28        20.92303
375.72         20.6615
376.17        20.36009
376.62        20.09606
377.07        19.89678
377.52        19.73063
377.97        19.60123
378.42        19.52263
378.87        19.48894
379.32        19.49775
379.77         19.5139
380.22        19.47919
380.67        19.38232
381.11        19.24203
381.56         19.0756
382.01        18.93647
382.46        18.84415
382.91        18.78156
383.36        18.74484
383.81        18.72542
384.26        18.71597
384.71         18.7242
385.15        18.72001
385.60        18.67081
386.05        18.56648
386.50        18.41342
386.95        18.26232
387.40        18.19121
387.85        18.21056
388.29        18.28755
388.74        18.36911
389.19        18.33646
389.64        18.17146
390.09        17.90624
390.54        17.63272
390.98        17.48173
391.43        17.48748
391.88        17.63536
392.33        17.81568
392.78        17.78148
393.23        17.55851
393.67        17.38032
394.12        17.30335
394.57        17.22908
395.02        17.17025
395.47        17.18718
395.91        17.25478
396.36        17.27705
396.81        17.24735
397.26        17.20436
397.71        17.14223
398.15        17.07175
398.60        17.02363
399.05        16.88912
399.50        16.73269
399.95        16.84161
400.39        17.13975
400.84         17.1335
401.29        16.83784
401.74        16.68642
402.18        16.69995
402.63        16.63646
403.08         16.5323
403.53        16.42549
403.97        16.55652
404.42        16.68147
404.87        16.81429
405.32        16.86142
405.76        16.79997
406.21        16.66676
406.66        16.49469
407.11        16.34013
407.55        16.22799
408.00        16.14007
408.45        16.07943
408.90        16.04697
409.34        16.03901
409.79        16.05617
410.24        16.09157
410.68        16.13001
411.13        16.16739
411.58        16.20315
412.03        16.22136
412.47        16.20226
412.92        16.13871
413.37        16.03837
413.81        15.93219
414.26        15.88124
414.71        15.88681
415.15        15.94514
415.60        16.00276
416.05        15.98157
416.49        15.86804
416.94        15.69641
417.39        15.53225
417.83        15.46982
418.28        15.52491
418.73        15.65617
419.17        15.81812
419.62        15.92361
420.07        15.94378
420.51        15.90641
420.96        15.81836
421.41        15.67796
421.85        15.49544
422.30        15.28413
422.74        15.09311
423.19        15.03994
423.64         15.1246
424.08         15.3023
424.53        15.48924
424.98        15.59875
425.42        15.60329
425.87        15.47549
426.31        15.30088
426.76        15.31105
427.21        15.49169
427.65        15.58997
428.10        15.58794
428.54        15.61977
428.99        15.68486
429.44        15.78559
429.88        15.85556
430.33        15.69958
430.77        15.40101
431.22         15.2965
431.66        15.40746
432.11        15.57358
432.56        15.72388
433.00        15.85982
433.45         15.8422
433.89        15.64843
434.34        14.87404
434.78         14.8702
435.23        15.46566
435.67        15.63183
436.12        15.35443
436.57        15.20611
437.01        15.23557
437.46        15.23066
437.90        15.19843
438.35        15.19728
438.79        15.21167
439.24        15.20663
439.68        15.18554
440.13        15.19623
440.57        15.21789
441.02        15.19941
441.46        15.13556
441.91        15.03606
442.35        14.93003
442.80        14.96558
443.24        15.10007
443.69          15.151
444.13        15.10723
444.58        15.10917
445.02        15.15424
445.47        15.15071
445.91        15.11407
446.36        15.12532
446.80        15.18564
447.24        15.27411
447.69        15.36089
448.13        15.39832
448.58        15.37839
449.02        15.31504
449.47        15.24273
449.91        15.20441
450.36        15.21458
450.80        15.25587
451.25        15.30564
451.69        15.32157
452.13        15.29532
452.58        15.24244
453.02         15.1812
453.47        15.14734
453.91        15.14807
454.36        15.16946
454.80        15.19248
455.24        15.21021
455.69        15.22458
456.13        15.18914
456.58        15.11306
457.02        15.18738
457.46        15.17066
457.91        15.11009
458.35         14.9706
458.79        14.96445
459.24        15.07557
459.68         15.1138
460.13         15.0833
460.57        15.06759
461.01        15.07532
461.46         15.0517
461.90        14.99927
462.34        14.94246
462.79         14.8836
463.23        14.81329
463.68        14.76231
464.12        14.76611
464.56         14.8239
465.01        14.96538
465.45         15.1088
465.89        15.09063
466.34        14.94455
466.78        14.84497
467.22        14.83526
467.67        14.85796
468.11        14.91608
468.55        14.99852
468.99        15.08121
469.44        15.14605
469.88         15.1829
470.32        15.17399
470.77        15.13557
471.21        15.11944
471.65        15.13406
472.10        15.16068
472.54        15.19106
472.98        15.22283
473.42        15.25185
473.87        15.28755
474.31        15.30994
474.75        15.30107
475.20        15.26722
475.64        15.20774
476.08        15.14653
476.52         15.1426
476.97        15.20743
477.41        15.28256
477.85        15.32872
478.29         15.5745
478.74        15.48945
479.18        15.61323
479.62        15.76887
480.06        15.84358
480.50        15.82762
480.95         15.7961
481.39        15.77785
481.83        15.79602
482.27        15.87177
482.72        16.01833
483.16        16.19252
483.60        16.33306
484.04        16.43099
484.48        16.42124
484.93        16.41476
485.37        16.66416
485.81        17.12202
486.25        17.31664
486.69        17.35022
487.14         17.1094
487.58         17.3702
488.02        17.22672
488.46        17.49351
488.90         17.3039
489.34        17.37333
489.79        17.42735
490.23        17.61478
490.67        17.96454
491.11        18.36668
491.55        18.45035
491.99        18.26992
492.43        18.30127
492.88        18.57351
493.32        18.80918
493.76         18.9639
494.20        19.11701
494.64         19.2628
495.08        19.37646
495.52        19.48659
495.96        19.64168
496.41         19.8438
496.85        20.07738
497.29        20.30482
497.73        20.45882
498.17        20.52692
498.61        20.56712
499.05        20.59984
499.49        20.57166
499.93        20.54293
500.37        20.70241
500.82        21.00692
501.26        21.20972
501.70        21.28192
502.14        21.35818
502.58        21.45378
503.02         21.5341
503.46         21.6051
503.90        21.67381
504.34        21.74141
504.78        21.81261
505.22        21.88948
505.66        21.96651
506.10        22.03194
506.54        22.11662
506.98        22.22934
507.42        22.27459
507.86        22.22978
508.30        22.54395
508.74         22.4296
509.18        22.52018
509.62        22.58659
510.06        22.66154
510.50        22.74024
510.94        22.82525
511.38        22.90822
511.82        22.95221
512.26        22.95435
512.70        22.92842
513.14        22.89121
513.58        22.86986
514.02        22.87224
514.46        22.88729
514.90        22.91661
515.34        22.96127
515.78        23.01709
516.22        23.08728
516.66        23.14497
517.10        23.14705
517.54        23.08955
517.98        22.98425
518.42         22.8803
518.86        22.85735
519.30        22.92982
519.74         23.0725
520.18        23.22737
520.62        23.29858
521.06        23.26152
521.50        23.14568
521.93        22.99854
522.37        22.89995
522.81        22.86938
523.25        22.88027
523.69        22.90399
524.13        22.89552
524.57        22.84409
525.01        22.77263
525.45         22.6931
525.89        22.62147
526.32        22.56404
526.76         22.5137
527.20        22.48155
527.64        22.48888
528.08        22.53351
528.52        22.60795
528.96        22.67403
529.40         22.6714
529.83        22.58516
530.27        22.43676
530.71        22.27042
531.15        22.15849
531.59        22.11825
532.03        22.13287
532.46         22.1598
532.90        22.13038
533.34        22.03428
533.78        21.90136
534.22        21.77743
534.66        21.72739
535.09        21.75776
535.53        21.84298
535.97        21.94679
536.41        21.99612
536.85        21.96984
537.28        21.94995
537.72        21.93739
538.16        21.79657
538.60        21.60778
539.04        21.66518
539.47        21.92245
539.91          22.057
540.35        22.04693
540.79        22.08303
541.22        22.16541
541.66        22.22492
542.10        22.26551
542.54        22.27193
542.97        22.28017
543.41        22.43533
543.85        22.70578
544.29        22.90614
544.72        23.00963
545.16        23.13838
545.60        23.28587
546.04        23.37624
546.47        23.43777
546.91        23.55987
547.35         23.7514
547.79        23.98928
548.22        24.24408
548.66        24.47089
549.10        24.66446
549.53        24.89617
549.97        25.14219
550.41        25.30678
550.84        25.38005
551.28         25.4159
551.72        25.43954
552.15        25.47258
552.59        25.54325
553.03        25.63807
553.46        25.75521
553.90        25.92435
554.34        26.12787
554.77        26.32955
555.21        26.51948
555.65        26.70248
556.08        26.86716
556.52        27.00667
556.96        27.11095
557.39        27.19335
557.83         27.2659
558.27        27.28548
558.70         27.2873
559.14        27.39248
559.57        27.57772
560.01        27.72084
560.45        27.78825
560.88        27.82773
561.32        27.85182
561.75        27.80366
562.19        27.75473
562.63        27.78871
563.06         27.9105
563.50         28.1802
563.93        28.50285
564.37        28.53077
564.80        28.32866
565.24        28.40767
565.68         28.7256
566.11        28.85616
566.55        28.79985
566.98         28.7766
567.42         28.8233
567.85        28.97874
568.29        29.05452
568.72        29.21498
569.16        29.40329
569.60        29.56795
570.03        29.68949
570.47        29.82671
570.90        29.98574
571.34         30.0035
571.77        30.35016
572.21         30.3009
572.64        30.46419
573.08         30.3319
573.51        30.98732
573.95         31.0711
574.38        31.00123
574.82        30.41945
