SpectraSmart Spectrum 2.9.0.0
--------- Device Information -----------
Spectrum Name :  反射率_0
Saving Time :  2024/05/03 20:54:17
Spectro-Module Model Name : SE2030-DUVN
Spectro-Module Serial Number : OS361AC55029948
Wavelength Start : 200
Wavelength End : 1025
Wavelength Unit : Wavelength(nm)
Spectrum Unit : Reflectance(%)
-----------Spectrum Setting ------------
Integration Time : 20ms
Average : 10
Boxcar : 0
Background removal :  enabled
linearity correction :  enabled
SC :  disabled
Intensity correction :  disabled
DWT denoise :  enabled
savitzky-golay :  disabled
FFT :  disabled
Running average :  disabled
Kalman :  disabled
High pass :  disabled
---------------BEGIN--------------------
Wavelength(nm)             Reflectance(%)
200.29               0
200.75        75.19466
201.21        125.9325
201.67       -3139.991
202.13       -78.12381
202.58        -25.7511
203.04       -3.311963
203.50        8.535814
203.96        10.93024
204.42        2.361057
204.88       -42.80501
205.34        1627.149
205.80        180.7637
206.26        167.8416
206.72         20196.6
207.18       -3.703516
207.64        11.45517
208.10        -10.5817
208.55       -103.6293
209.01       -1086.197
209.47       -1749.857
209.93       -240.8241
210.39       -80.72565
210.85       -35.48168
211.31       -19.93888
211.77       -15.05947
212.23       -15.87518
212.69       -24.39104
213.14       -26.83381
213.60        -12.8562
214.06       -5.243123
214.52       -3.599795
214.98       -5.752499
215.44       -13.19527
215.90       -43.51843
216.36        354.6867
216.81        61.53344
217.27        36.82515
217.73        11.49299
218.19       -94.39404
218.65       -2629.442
219.11       -115.5067
219.57        22.45146
220.02        55.61837
220.48        113.0086
220.94       -76.87615
221.40      -0.9948999
221.86        11.41791
222.32        14.48034
222.77         14.0467
223.23        11.78018
223.69        7.912147
224.15         6.06204
224.61        8.793287
225.06        12.45943
225.52        15.90467
225.98        19.71961
226.44        24.59124
226.90        31.33834
227.36        38.58651
227.81        40.79224
228.27        35.93081
228.73         27.7921
229.19        20.72532
229.65        17.83594
230.10        18.36761
230.56        20.63168
231.02        23.40084
231.48        25.61995
231.93        27.14385
232.39        28.45907
232.85        29.59286
233.31         30.5206
233.77        31.27314
234.22        31.71618
234.68        32.10043
235.14        32.89071
235.60        34.18699
236.05        36.01674
236.51        37.75756
236.97        38.20134
237.43        37.04575
237.88        34.95552
238.34        32.93297
238.80        31.94817
239.26        32.23099
239.71        36.19038
240.17         40.8765
240.63        47.67835
241.08        51.17205
241.54        49.26545
242.00        44.87931
242.46        42.45455
242.91        42.80314
243.37        44.97763
243.83        48.18416
244.28        45.52604
244.74        30.30243
245.20        9.884239
245.66       -5.605026
246.11       -13.01678
246.57       -14.18911
247.03         -11.148
247.48       -6.445859
247.94       -2.707949
248.40       0.1044319
248.85        2.391109
249.31          5.2354
249.77        9.098247
250.22         12.9618
250.68        15.85307
251.14        18.00355
251.59        20.25623
252.05        23.45131
252.51        28.64048
252.96        36.10799
253.42        43.05554
253.88         45.8198
254.33        44.59481
254.79        42.92675
255.25        43.20327
255.70        44.62844
256.16        46.46842
256.62        47.92385
257.07         48.6362
257.53        49.11666
257.99        49.31575
258.44        49.34156
258.90        49.75055
259.35        50.11531
259.81        50.61984
260.27        50.73692
260.72        49.99192
261.18        48.85731
261.63        47.41574
262.09        46.25082
262.55        45.61996
263.00        45.39645
263.46         45.4668
263.91        45.48423
264.37        45.23341
264.83        44.63094
265.28        43.79429
265.74        42.91098
266.19        41.99335
266.65        41.16436
267.11        40.33675
267.56        39.55017
268.02        38.94648
268.47        38.48934
268.93        38.18563
269.38        37.89537
269.84        37.38411
270.30        36.64767
270.75        35.75375
271.21        34.97286
271.66        34.60578
272.12        34.68199
272.57        35.03666
273.03        35.38226
273.48        35.28277
273.94        34.66191
274.39        33.69736
274.85        32.61308
275.31        31.63404
275.76         30.8363
276.22        30.19348
276.67        29.71905
277.13        29.54711
277.58        29.58609
278.04         29.8155
278.49        29.98464
278.95         29.7568
279.40        29.06609
279.86        28.13422
280.31        27.15481
280.77        26.48749
281.22        26.11794
281.68        25.97418
282.13        25.91862
282.59        25.81909
283.04        25.61307
283.50        25.36898
283.95        25.10704
284.41         24.8812
284.86        24.68563
285.32        24.52042
285.77        24.34587
286.22         24.1684
286.68        24.00075
287.13        23.82937
287.59        23.69317
288.04        23.59323
288.50        23.55025
288.95        23.53739
289.41        23.55173
289.86        23.54441
290.32         23.5256
290.77        23.48711
291.22        23.46658
291.68        23.50795
292.13        23.61593
292.59        23.81289
293.04         24.0577
293.50          24.299
293.95        24.52151
294.40        24.74017
294.86        25.04529
295.31        25.57318
295.77        26.33375
296.22        27.25846
296.68        28.19122
297.13        28.86993
297.58        29.21492
298.04        29.32883
298.49        29.31071
298.95        29.35302
299.40         29.5082
299.85        29.73533
300.31        30.06915
300.76        30.53169
301.21        31.11415
301.67        31.80999
302.12        32.49483
302.58        32.98889
303.03        33.24037
303.48        33.30738
303.94        33.33059
304.39        33.47141
304.84        33.78585
305.30        34.21297
305.75        34.64991
306.20        34.96958
306.66        35.14846
307.11        35.21507
307.57         35.2333
308.02        35.22591
308.47        35.23265
308.93        35.24636
309.38        35.26019
309.83        35.30935
310.29        35.39092
310.74        35.47929
311.19        35.55387
311.65        35.57407
312.10        35.51758
312.55         35.4012
313.00        35.21359
313.46        34.94272
313.91        34.59205
314.36         34.1897
314.82        33.80661
315.27        33.54013
315.72        33.41905
316.18        33.41664
316.63        33.47179
317.08        33.48739
317.53        33.42951
317.99        33.31265
318.44        33.16959
318.89        33.04284
319.35        32.94434
319.80        32.85636
320.25        32.75379
320.70         32.6062
321.16        32.40222
321.61        32.16237
322.06        31.91011
322.51        31.68542
322.97        31.49886
323.42        31.34761
323.87        31.20666
324.32        31.03866
324.78         30.8306
325.23        30.60417
325.68         30.3755
326.13        30.17617
326.59        30.00531
327.04        29.86795
327.49        29.74509
327.94        29.61818
328.39        29.47714
328.85         29.3169
329.30        29.14857
329.75        28.96043
330.20        28.75345
330.66        28.52062
331.11        28.28353
331.56        28.04029
332.01        27.79731
332.46        27.56097
332.92        27.33137
333.37        27.13969
333.82        26.98292
334.27        26.86206
334.72          26.776
335.17         26.7219
335.63        26.68282
336.08        26.66088
336.53        26.64186
336.98        26.61756
337.43        26.58018
337.88        26.53302
338.34        26.44692
338.79        26.28123
339.24        26.03975
339.69        25.74585
340.14        25.47203
340.59        25.33418
341.05        25.35549
341.50        25.50042
341.95        25.69561
342.40        25.82361
342.85        25.84582
343.30        25.79236
343.75        25.68789
344.20        25.57767
344.66        25.48968
345.11        25.40402
345.56        25.33165
346.01         25.2894
346.46        25.27927
346.91        25.29859
347.36        25.33793
347.81        25.37825
348.26        25.40955
348.72        25.43342
349.17        25.43288
349.62        25.39217
350.07         25.3091
350.52         25.1858
350.97        25.04238
351.42        24.91319
351.87        24.80607
352.32        24.71374
352.77        24.61829
353.22        24.48899
353.67        24.32408
354.13        24.14819
354.58        23.97123
355.03        23.82614
355.48        23.72371
355.93        23.65631
356.38        23.61981
356.83        23.60908
357.28        23.61412
357.73        23.62553
358.18        23.63382
358.63        23.62423
359.08        23.59065
359.53        23.53867
359.98        23.45098
360.43        23.30545
360.88        23.10352
361.33        22.84883
361.78        22.59863
362.23        22.43855
362.68        22.38303
363.13        22.41661
363.58        22.45021
364.03          22.339
364.48        22.06113
364.93         21.6644
365.38        21.27636
365.83        21.09395
366.28        21.15335
366.73        21.38756
367.18        21.66018
367.63        21.74938
368.08        21.59593
368.53        21.26918
368.98        20.88146
369.43        20.60334
369.88        20.48157
370.33        20.46607
370.78        20.48597
371.23        20.42597
371.68         20.2551
372.13        20.01694
372.58        19.77794
373.03        19.63188
373.48        19.59493
373.93        19.62796
374.38        19.66432
374.83        19.59998
375.28        19.41146
375.72         19.1342
376.17        18.84291
376.62        18.60954
377.07        18.45382
377.52         18.3495
377.97        18.28007
378.42        18.22199
378.87        18.16374
379.32        18.11405
379.77        18.06516
380.22        18.00071
380.67        17.91813
381.11         17.8236
381.56        17.71789
382.01        17.62296
382.46        17.54748
382.91        17.48441
383.36        17.43844
383.81        17.41395
384.26         17.4068
384.71        17.41685
385.15        17.41245
385.60        17.36018
386.05        17.24855
386.50        17.08659
386.95        16.92027
387.40        16.81878
387.85        16.79553
388.29         16.8265
388.74        16.86914
389.19         16.8218
389.64        16.66996
390.09        16.43945
390.54        16.21689
390.98        16.12537
391.43        16.19005
391.88        16.39026
392.33        16.60888
392.78        16.59571
393.23        16.37153
393.67        16.16027
394.12        16.02551
394.57        15.89273
395.02        15.78053
395.47        15.74303
395.91        15.75355
396.36        15.71826
396.81        15.63311
397.26        15.53888
397.71        15.44148
398.15        15.36448
398.60        15.33491
399.05        15.24687
399.50        15.14075
399.95        15.25298
400.39        15.50964
400.84        15.46852
401.29        15.15868
401.74        14.99727
402.18        15.00869
402.63        14.96736
403.08         14.8923
403.53        14.79573
403.97        14.88944
404.42        14.96359
404.87        15.04125
405.32        15.05236
405.76         14.9835
406.21        14.86614
406.66        14.72809
407.11        14.61811
407.55        14.55581
408.00        14.52035
408.45        14.51665
408.90        14.54829
409.34        14.60417
409.79        14.67718
410.24        14.73868
410.68        14.74389
411.13         14.6881
411.58        14.58519
412.03        14.45182
412.47        14.32874
412.92        14.23291
413.37        14.15645
413.81        14.11036
414.26        14.12376
414.71        14.18607
415.15        14.29732
415.60        14.39918
416.05        14.40135
416.49        14.28464
416.94        14.08246
417.39        13.86386
417.83        13.72929
418.28        13.70181
418.73        13.74865
419.17        13.83513
419.62        13.89338
420.07        13.89948
420.51        13.87001
420.96        13.81661
421.41        13.74463
421.85        13.65549
422.30        13.55609
422.74        13.44989
423.19        13.38457
423.64        13.35363
424.08        13.33105
424.53        13.30385
424.98        13.30615
425.42        13.34521
425.87        13.37216
426.31        13.38516
426.76        13.46447
427.21         13.5659
427.65        13.50111
428.10        13.33006
428.54        13.28717
428.99        13.39427
429.44        13.60852
429.88        13.80499
430.33          13.715
430.77        13.39496
431.22        13.17865
431.66        13.12866
432.11        13.17672
432.56        13.28643
433.00        13.43789
433.45        13.49114
433.89        13.38237
434.34        12.74573
434.78         12.7539
435.23        13.26668
435.67        13.40722
436.12        13.16577
436.57        13.02516
437.01        13.03234
437.46        13.01872
437.90        12.99212
438.35        13.00105
438.79        13.01686
439.24        12.98362
439.68        12.90267
440.13        12.82621
440.57        12.76085
441.02        12.70395
441.46        12.66081
441.91        12.62387
442.35        12.59578
442.80          12.674
443.24        12.81342
443.69        12.86305
444.13        12.81827
444.58        12.80646
445.02        12.82906
445.47        12.80896
445.91        12.75013
446.36        12.70744
446.80        12.68338
447.24        12.66584
447.69        12.65998
448.13        12.67258
448.58        12.70223
449.02        12.74376
449.47        12.78055
449.91        12.77793
450.36        12.73442
450.80        12.65995
451.25        12.57638
451.69        12.51431
452.13        12.48393
452.58        12.47555
453.02        12.48251
453.47        12.49949
453.91        12.52091
454.36        12.54954
454.80        12.56894
455.24        12.57069
455.69        12.55845
456.13        12.48901
456.58         12.3899
457.02        12.44947
457.46        12.47351
457.91        12.49363
458.35        12.44411
458.79        12.44455
459.24        12.47527
459.68        12.39743
460.13        12.26406
460.57        12.21551
461.01        12.26998
461.46        12.35667
461.90        12.43079
462.34        12.43467
462.79        12.35152
463.23        12.20294
463.68        12.04805
464.12        11.97124
464.56        11.99124
465.01        12.11022
465.45        12.25702
465.89        12.29356
466.34        12.23843
466.78         12.2366
467.22        12.30031
467.67        12.33629
468.11        12.33656
468.55        12.30476
468.99        12.25702
469.44        12.23741
469.88         12.2529
470.32        12.27401
470.77        12.29108
471.21        12.30559
471.65        12.31263
472.10        12.31226
472.54        12.30888
472.98         12.3164
473.42         12.3378
473.87        12.37387
474.31         12.4082
474.75        12.42831
475.20        12.43661
475.64         12.4293
476.08         12.4206
476.52        12.45015
476.97         12.5243
477.41        12.59673
477.85        12.63184
478.29        12.81403
478.74        12.70888
479.18        12.76278
479.62         12.8425
480.06         12.8763
480.50         12.8596
480.95        12.84716
481.39         12.8501
481.83        12.86751
482.27        12.91447
482.72        13.01248
483.16         13.1319
483.60        13.23465
484.04        13.31406
484.48        13.30476
484.93         13.3181
485.37        13.57845
485.81         13.9961
486.25        14.29367
486.69        14.22178
487.14        13.93861
487.58        14.11351
488.02        14.13508
488.46         14.2186
488.90        14.17951
489.34        13.88488
489.79        13.96451
490.23        14.31865
490.67         14.6068
491.11        14.75501
491.55        14.77051
491.99        14.71464
492.43         14.7833
492.88        14.99565
493.32        15.21555
493.76        15.39412
494.20         15.5388
494.64        15.64186
495.08        15.69978
495.52        15.74536
495.96        15.84456
496.41        16.00925
496.85        16.19189
497.29        16.37121
497.73        16.57355
498.17        16.75718
498.61        16.81316
499.05        16.77021
499.49        16.74101
499.93        16.78125
500.37        16.95578
500.82        17.21325
501.26        17.36731
501.70        17.39388
502.14        17.40227
502.58        17.42887
503.02        17.48256
503.46        17.57578
503.90        17.70497
504.34        17.84629
504.78        17.95993
505.22        18.03487
505.66        18.07832
506.10        18.10005
506.54        18.15737
506.98        18.26558
507.42        18.33436
507.86        18.33065
508.30         18.6027
508.74        18.49529
509.18        18.54113
509.62        18.56003
510.06        18.59162
510.50        18.63693
510.94         18.6933
511.38        18.75514
511.82         18.7942
512.26        18.80692
512.70        18.80505
513.14          18.793
513.58        18.77796
514.02        18.76358
514.46        18.74326
514.90        18.73169
515.34        18.75289
515.78        18.80791
516.22        18.89241
516.66        18.96776
517.10        18.97145
517.54        18.89617
517.98        18.76377
518.42         18.6308
518.86        18.58804
519.30        18.65375
519.74        18.79585
520.18        18.96195
520.62        19.06557
521.06        19.07976
521.50        19.03128
521.93        18.94336
522.37        18.85655
522.81        18.78569
523.25         18.7163
523.69        18.65433
524.13        18.61061
524.57        18.58553
525.01        18.58311
525.45        18.58322
525.89        18.54972
526.32        18.47587
526.76        18.37271
527.20        18.27051
527.64        18.22004
528.08        18.22949
528.52        18.28035
528.96        18.33462
529.40        18.33293
529.83        18.25848
530.27        18.13442
530.71        17.99227
531.15         17.8819
531.59        17.81813
532.03        17.79014
532.46        17.77575
532.90        17.74049
533.34        17.67943
533.78        17.60783
534.22        17.55081
534.66        17.54338
535.09        17.58507
535.53        17.65984
535.97        17.73903
536.41        17.76486
536.85        17.72334
537.28         17.6814
537.72        17.64678
538.16         17.5215
538.60        17.37329
539.04        17.43626
539.47        17.66917
539.91        17.80469
540.35        17.82093
540.79        17.87137
541.22        17.95596
541.66        18.01849
542.10        18.06213
542.54         18.0758
542.97        18.08409
543.41        18.19902
543.85        18.39528
544.29        18.52359
544.72        18.57808
545.16        18.68125
545.60        18.83006
546.04        18.95638
546.47        19.05815
546.91        19.16643
547.35         19.2831
547.79        19.40758
548.22        19.54574
548.66        19.70525
549.10        19.89362
549.53        20.15522
549.97        20.45591
550.41        20.69189
550.84        20.84018
551.28        20.94556
551.72        21.02871
552.15        21.10845
552.59        21.20802
553.03        21.31543
553.46        21.42087
553.90        21.53856
554.34        21.65769
554.77        21.75643
555.21        21.85364
555.65         21.9953
556.08        22.17855
556.52        22.38206
556.96        22.56728
557.39        22.69827
557.83        22.77352
558.27        22.77284
558.70        22.73956
559.14         22.7975
559.57        22.93823
560.01        23.05339
560.45         23.1204
560.88        23.18826
561.32        23.26474
561.75         23.2968
562.19        23.33104
562.63        23.41473
563.06        23.54638
563.50        23.78564
563.93        24.05408
564.37        24.06242
564.80        23.87181
565.24        23.91209
565.68        24.16689
566.11         24.3079
566.55        24.33766
566.98        24.43235
567.42        24.59114
567.85        24.79376
568.29         24.8707
568.72         24.9826
569.16        25.11008
569.60         25.2577
570.03        25.41794
570.47        25.60375
570.90        25.80401
571.34        25.89234
571.77        26.26539
572.21        26.19516
572.64        26.44411
573.08        26.29671
573.51        26.69983
573.95        26.79431
574.38        26.84611
574.82        26.70657
