SpectraSmart Spectrum 2.9.0.0
--------- Device Information -----------
Spectrum Name :  反射率_0
Saving Time :  2024/05/03 20:56:08
Spectro-Module Model Name : SE2030-DUVN
Spectro-Module Serial Number : OS361AC55029948
Wavelength Start : 200
Wavelength End : 1025
Wavelength Unit : Wavelength(nm)
Spectrum Unit : Reflectance(%)
-----------Spectrum Setting ------------
Integration Time : 20ms
Average : 10
Boxcar : 0
Background removal :  enabled
linearity correction :  enabled
SC :  disabled
Intensity correction :  disabled
DWT denoise :  enabled
savitzky-golay :  disabled
FFT :  disabled
Running average :  disabled
Kalman :  disabled
High pass :  disabled
---------------BEGIN--------------------
Wavelength(nm)             Reflectance(%)
200.29               0
200.75        56.59967
201.21        108.5658
201.67       -3129.956
202.13       -91.43554
202.58       -38.40464
203.04       -15.25571
203.50       -3.354222
203.96       -2.906402
204.42        -16.9957
204.88       -80.81823
205.34        2231.045
205.80        228.9964
206.26         210.268
206.72        27033.94
207.18        -8.37709
207.64        35.46629
208.10        60.99002
208.55        122.2056
209.01        638.5034
209.47        778.1433
209.93        109.6029
210.39        43.68763
210.85        26.77279
211.31         23.7306
211.77        27.73896
212.23        42.89158
212.69        83.89822
213.14        109.4071
213.60        51.11428
214.06        14.78651
214.52       0.4855086
214.98       -5.195334
215.44       -8.054575
215.90       -11.11248
216.36       -4.699914
216.81       -17.97204
217.27       -32.34576
217.73       -75.08014
218.19       -319.3848
218.65       -7049.415
219.11       -552.1884
219.57        -156.028
220.02        -95.6065
220.48       -176.8804
220.94        222.6585
221.40        74.96399
221.86        52.65274
222.32        45.61592
222.77        42.96515
223.23         42.5453
223.69         43.5346
224.15        43.65958
224.61         42.1897
225.06        40.59089
225.52        40.72628
225.98        43.53769
226.44        49.31337
226.90        58.31924
227.36        69.61471
227.81        77.43084
228.27        77.58427
228.73        72.87412
229.19        66.77349
229.65        62.08355
230.10        58.91628
230.56         56.8055
231.02        55.36922
231.48        54.47183
231.93        53.93764
232.39        53.95355
232.85        54.17426
233.31        54.18953
233.77        53.92223
234.22        53.35157
234.68         52.9161
235.14        53.36678
235.60        54.88356
236.05        57.45865
236.51        60.08225
236.97        60.89542
237.43        59.36249
237.88        56.22681
238.34        53.09382
238.80        51.75418
239.26        52.73434
239.71        58.36982
240.17        66.79699
240.63        75.83414
241.08        77.20891
241.54        68.72068
242.00         58.8452
242.46        57.26432
242.91        66.45572
243.37        89.37025
243.83        130.8696
244.28        170.6945
244.74        161.8504
245.20        108.4548
245.66        49.75519
246.11        16.92304
246.57         7.81947
247.03        11.58684
247.48        18.99273
247.94        20.95401
248.40        16.66356
248.85        8.749908
249.31        1.416243
249.77        2.528152
250.22        11.93484
250.68        23.52291
251.14        33.57308
251.59        40.93282
252.05        46.82613
252.51        52.77081
252.96        59.24668
253.42        64.25829
253.88        65.00646
254.33        61.80038
254.79        57.00328
255.25        52.25296
255.70        48.50961
256.16        46.23333
256.62        45.30436
257.07        45.67908
257.53        47.16292
257.99          49.035
258.44        50.40119
258.90        50.73508
259.35        49.83535
259.81        48.58757
260.27        47.28897
260.72        46.28137
261.18        45.83048
261.63          45.511
262.09        45.36742
262.55        45.15421
263.00        44.76764
263.46        44.33981
263.91        43.82178
264.37         43.3937
264.83        43.01682
265.28        42.62572
265.74        42.18665
266.19        41.43908
266.65        40.48301
267.11        39.36745
267.56        38.27062
268.02        37.51702
268.47        37.10488
268.93        36.95206
269.38        36.87574
269.84        36.56846
270.30        35.98634
270.75        35.24145
271.21        34.53885
271.66        34.07853
272.12        33.90279
272.57        33.87751
273.03        33.89344
273.48        33.81463
273.94         33.5933
274.39        33.26816
274.85        32.83052
275.31         32.1717
275.76         31.3145
276.22        30.37977
276.67         29.5064
277.13         28.9844
277.58        28.77351
278.04        28.80005
278.49         28.8562
278.95        28.67947
279.40        28.18619
279.86        27.55323
280.31        26.85809
280.77        26.30664
281.22        25.87135
281.68         25.5325
282.13        25.22626
282.59        24.93786
283.04         24.6384
283.50        24.35648
283.95        24.08772
284.41        23.84704
284.86        23.61705
285.32        23.41673
285.77        23.20101
286.22        22.96237
286.68        22.71256
287.13        22.43504
287.59        22.18826
288.04        22.00912
288.50        21.91557
288.95         21.8668
289.41        21.82381
289.86         21.6831
290.32         21.4528
290.77        21.15933
291.22        20.87024
291.68        20.67105
292.13        20.57018
292.59        20.55407
293.04        20.59409
293.50        20.66331
293.95        20.74168
294.40         20.8476
294.86         20.9797
295.31        21.13138
295.77        21.30182
296.22        21.47594
296.68        21.66815
297.13        21.90435
297.58         22.1792
298.04        22.50163
298.49        22.79921
298.95        22.99403
299.40        23.06992
299.85        23.05296
300.31        23.07488
300.76        23.31762
301.21         23.8061
301.67        24.46839
302.12        25.10712
302.58        25.43133
303.03        25.38293
303.48        25.08429
303.94        24.74281
304.39        24.61642
304.84        24.77955
305.30        25.13873
305.75        25.57644
306.20        25.93408
306.66        26.16789
307.11        26.31974
307.57         26.4255
308.02        26.48487
308.47        26.52535
308.93        26.53208
309.38        26.53295
309.83        26.61069
310.29          26.772
310.74        26.98911
311.19         27.1867
311.65        27.23662
312.10         27.1082
312.55        26.84569
313.00        26.53371
313.46        26.30615
313.91        26.18823
314.36        26.15142
314.82        26.14259
315.27          26.066
315.72        25.90474
316.18        25.69225
316.63        25.47535
317.08        25.32805
317.53        25.26477
317.99        25.25115
318.44        25.24771
318.89          25.182
319.35        25.03363
319.80        24.82903
320.25        24.59372
320.70        24.37015
321.16        24.16686
321.61        23.97054
322.06        23.77707
322.51        23.58417
322.97        23.38952
323.42        23.21054
323.87        23.02588
324.32        22.79985
324.78        22.52807
325.23        22.22424
325.68        21.93818
326.13        21.75782
326.59        21.69094
327.04        21.72318
327.49        21.77646
327.94        21.72642
328.39        21.53864
328.85        21.24397
329.30        20.91209
329.75        20.64688
330.20        20.48625
330.66        20.39088
331.11        20.34458
331.56        20.29047
332.01        20.20706
332.46        20.11359
332.92        19.99985
333.37        19.87177
333.82         19.7239
334.27        19.55263
334.72        19.37971
335.17        19.24752
335.63        19.16135
336.08        19.12572
336.53        19.11122
336.98         19.0729
337.43        18.99903
337.88        18.90361
338.34        18.80597
338.79         18.7395
339.24        18.71227
339.69         18.7106
340.14        18.71932
340.59        18.71764
341.05         18.6946
341.50        18.65335
341.95        18.59566
342.40        18.52782
342.85         18.4529
343.30        18.37298
343.75        18.27798
344.20        18.15331
344.66        18.01008
345.11         17.8556
345.56        17.72712
346.01         17.6757
346.46        17.70957
346.91        17.80904
347.36         17.9353
347.81        18.02858
348.26        18.06766
348.72         18.0628
349.17        18.02707
349.62        17.99051
350.07        17.96137
350.52        17.93019
350.97        17.87982
351.42        17.78624
351.87        17.64744
352.32        17.47489
352.77        17.30102
353.22        17.17436
353.67        17.10651
354.13         17.0915
354.58        17.08338
355.03        17.02494
355.48         16.9083
355.93        16.75767
356.38        16.61539
356.83        16.54886
357.28        16.56848
357.73        16.64056
358.18        16.73267
358.63        16.79324
359.08        16.80217
359.53        16.77881
359.98        16.70854
360.43        16.57099
360.88        16.37182
361.33        16.11268
361.78        15.85784
362.23        15.70757
362.68        15.67693
363.13        15.74241
363.58        15.80991
364.03        15.72508
364.48        15.46117
364.93        15.07128
365.38         14.6708
365.83         14.4374
366.28        14.41009
366.73         14.5315
367.18        14.70111
367.63        14.75516
368.08        14.64726
368.53        14.42894
368.98        14.17338
369.43        13.99082
369.88        13.90908
370.33        13.88877
370.78        13.88231
371.23        13.81547
371.68        13.66972
372.13        13.47924
372.58        13.28214
373.03         13.1292
373.48        13.03317
373.93        12.97311
374.38        12.93235
374.83        12.88708
375.28        12.82613
375.72        12.75141
376.17        12.67115
376.62        12.57174
377.07         12.4523
377.52        12.31308
377.97        12.16852
378.42        12.04706
378.87         11.9588
379.32            11.9
379.77        11.85523
380.22        11.79845
380.67        11.72198
381.11        11.63287
381.56        11.54297
382.01        11.48196
382.46          11.458
382.91        11.46347
383.36        11.47219
383.81        11.44573
384.26        11.37672
384.71        11.27432
385.15        11.16794
385.60        11.12076
386.05         11.1365
386.50        11.19348
386.95         11.2482
387.40        11.23423
387.85        11.14449
388.29        11.00588
388.74        10.86783
389.19        10.77267
389.64        10.73221
390.09        10.72672
390.54        10.75554
390.98        10.80762
391.43        10.87383
391.88         10.9721
392.33        11.06597
392.78        11.04846
393.23        10.94472
393.67        10.87895
394.12        10.86817
394.57        10.82293
395.02        10.74725
395.47        10.69476
395.91        10.66745
396.36        10.63164
396.81        10.59349
397.26         10.5672
397.71        10.54484
398.15        10.52576
398.60        10.52353
399.05        10.47237
399.50        10.40032
399.95        10.46905
400.39        10.62991
400.84        10.57943
401.29        10.34786
401.74         10.2366
402.18        10.26584
402.63        10.27965
403.08        10.27955
403.53        10.25416
403.97         10.3461
404.42        10.41479
404.87        10.48362
405.32        10.51695
405.76        10.50591
406.21        10.46125
406.66        10.39993
407.11        10.35352
407.55        10.33299
408.00        10.32869
408.45        10.32675
408.90        10.30001
409.34        10.24331
409.79        10.16779
410.24        10.09811
410.68        10.06515
411.13        10.07591
411.58        10.12237
412.03        10.17727
412.47        10.19463
412.92        10.15935
413.37         10.0856
413.81        10.00897
414.26        9.990871
414.71        10.03575
415.15        10.13028
415.60        10.22423
416.05        10.23748
416.49        10.15217
416.94        10.00185
417.39        9.844361
417.83        9.761376
418.28        9.771245
418.73         9.84519
419.17        9.952228
419.62        10.03431
420.07        10.06911
420.51        10.07145
420.96        10.04785
421.41        10.00096
421.85         9.93291
422.30        9.848637
422.74        9.760258
423.19        9.717486
423.64        9.718425
424.08        9.744543
424.53         9.76939
424.98        9.789306
425.42        9.802156
425.87        9.777711
426.31        9.744175
426.76         9.80863
427.21        9.948859
427.65        10.01581
428.10        10.00598
428.54        10.02053
428.99        10.06417
429.44        10.13067
429.88        10.18242
430.33        10.10323
430.77        9.944981
431.22        9.921886
431.66        10.03633
432.11        10.16164
432.56        10.24618
433.00         10.2965
433.45        10.23751
433.89        10.08424
434.34        9.587185
434.78        9.607242
435.23        10.02591
435.67        10.16226
436.12        9.999399
436.57        9.912234
437.01        9.936887
437.46         9.94044
437.90        9.928654
438.35        9.937799
438.79        9.949074
439.24        9.926638
439.68        9.873188
440.13        9.825336
440.57        9.789377
441.02        9.764545
441.46        9.752303
441.91        9.746087
442.35        9.739594
442.80        9.796426
443.24        9.882538
443.69        9.888281
444.13         9.82263
444.58        9.803574
445.02        9.836953
445.47        9.854596
445.91        9.855004
446.36        9.873073
446.80        9.905849
447.24        9.946157
447.69        9.984082
448.13        10.00284
448.58        9.999621
449.02        9.976855
449.47        9.947605
449.91        9.927133
450.36          9.9211
450.80        9.923422
451.25        9.923504
451.69        9.900823
452.13        9.853092
452.58        9.789371
453.02        9.723709
453.47        9.682183
453.91        9.670872
454.36        9.681856
454.80        9.699759
455.24        9.712995
455.69        9.720496
456.13        9.691401
456.58        9.638598
457.02        9.694538
457.46        9.705905
457.91        9.698977
458.35        9.634629
458.79        9.624449
459.24        9.656499
459.68        9.617301
460.13        9.535673
460.57        9.500274
461.01        9.523644
461.46        9.559448
461.90        9.585813
462.34        9.577273
462.79        9.525168
463.23        9.435579
463.68        9.350189
464.12        9.326842
464.56        9.373942
465.01        9.495923
465.45         9.62337
465.89        9.627434
466.34        9.524357
466.78        9.433866
467.22        9.393188
467.67        9.382344
468.11        9.409623
468.55        9.464463
468.99        9.524421
469.44        9.567617
469.88        9.583966
470.32        9.563606
470.77        9.526162
471.21        9.517979
471.65        9.546195
472.10         9.59504
472.54        9.640051
472.98        9.650725
473.42        9.622365
473.87        9.573092
474.31        9.517992
474.75        9.488555
475.20        9.495332
475.64        9.519579
476.08         9.55166
476.52        9.591054
476.97        9.633936
477.41        9.655678
477.85        9.638675
478.29        9.738091
478.74        9.630958
479.18        9.653361
479.62        9.704913
480.06        9.733563
480.50        9.734598
480.95        9.747398
481.39        9.777458
481.83        9.820621
482.27        9.884445
482.72        9.982863
483.16        10.08703
483.60        10.15652
484.04        10.18343
484.48        10.13818
484.93        10.11602
485.37          10.272
485.81        10.55711
486.25        10.85937
486.69        10.74532
487.14        10.61988
487.58        10.93926
488.02        10.71587
488.46        10.92601
488.90        10.85993
489.34        10.68759
489.79        10.72576
490.23        10.91942
490.67        11.15176
491.11         11.3383
491.55        11.33725
491.99        11.20407
492.43        11.22252
492.88        11.41291
493.32        11.59715
493.76        11.73112
494.20        11.84068
494.64        11.91778
495.08          11.958
495.52        11.98062
495.96        12.02631
496.41        12.10534
496.85        12.18603
497.29        12.27432
497.73        12.42311
498.17        12.60613
498.61         12.7316
499.05         12.7881
499.49        12.80653
499.93        12.81643
500.37        12.88355
500.82        12.99863
501.26        13.06942
501.70        13.09284
502.14        13.13805
502.58        13.21096
503.02         13.2844
503.46        13.35794
503.90        13.43758
504.34        13.52475
504.78        13.62036
505.22        13.72114
505.66        13.82011
506.10        13.89489
506.54        13.94437
506.98        13.97243
507.42        13.92665
507.86        13.81751
508.30        13.96221
508.74        13.88339
509.18        13.96522
509.62        14.04622
510.06        14.11371
510.50        14.15538
510.94        14.18139
511.38        14.20284
511.82        14.22278
512.26        14.24545
512.70         14.2705
513.14        14.28853
513.58         14.2872
514.02        14.26579
514.46        14.22648
514.90        14.19462
515.34        14.20988
515.78        14.27793
516.22        14.38818
516.66        14.49572
517.10        14.52922
517.54        14.47654
517.98        14.36003
518.42        14.23622
518.86        14.19572
519.30        14.25772
519.74        14.39207
520.18        14.54371
520.62         14.6227
521.06        14.60393
521.50        14.51594
521.93        14.39754
522.37        14.31099
522.81        14.27412
523.25        14.26609
523.69        14.26814
524.13        14.25182
524.57        14.20987
525.01        14.15776
525.45        14.10343
525.89        14.05623
526.32        14.01969
526.76        13.98919
527.20        13.96854
527.64        13.96655
528.08        13.98142
528.52        14.00942
528.96        14.03292
529.40        14.02423
529.83        13.97581
530.27        13.89781
530.71        13.80954
531.15        13.74309
531.59        13.70658
532.03        13.69347
532.46        13.68547
532.90         13.6532
533.34        13.59341
533.78        13.51971
534.22        13.45329
534.66        13.42398
535.09        13.43296
535.53        13.46718
535.97        13.50895
536.41        13.52011
536.85        13.49102
537.28        13.47208
537.72        13.46026
538.16        13.36588
538.60        13.23762
539.04        13.25626
539.47        13.40371
539.91        13.49813
540.35        13.52644
540.79        13.59899
541.22        13.69555
541.66        13.74075
542.10        13.73226
542.54        13.67438
542.97        13.61312
543.41        13.67461
543.85        13.84839
544.29        14.00844
544.72        14.12526
545.16        14.25418
545.60        14.38329
546.04        14.47197
546.47         14.5335
546.91        14.61512
547.35        14.72427
547.79           14.85
548.22        14.98733
548.66        15.12965
549.10        15.27886
549.53        15.47401
549.97        15.69181
550.41        15.85644
550.84        15.95287
551.28        16.01496
551.72        16.05958
552.15        16.10325
552.59        16.16443
553.03          16.234
553.46        16.30537
553.90        16.38946
554.34        16.47843
554.77        16.55803
555.21        16.63965
555.65        16.75036
556.08        16.88646
556.52        17.03792
556.96         17.1876
557.39        17.29501
557.83        17.41186
558.27        17.47636
558.70        17.51426
559.14        17.58322
559.57         17.6702
560.01        17.70198
560.45        17.69079
560.88         17.7173
561.32        17.79414
561.75        17.87333
562.19        17.96106
562.63        18.02907
563.06        18.07564
563.50        18.20395
563.93        18.36761
564.37        18.33211
564.80        18.15221
565.24        18.16819
565.68          18.364
566.11        18.47537
566.55        18.50097
566.98        18.58031
567.42        18.70694
567.85        18.85637
568.29        18.89863
568.72        18.95345
569.16        19.01458
569.60        19.12134
570.03        19.27824
570.47        19.44871
570.90        19.59484
571.34        19.78325
571.77        20.00358
572.21        19.88851
572.64        20.04886
573.08        19.95229
573.51         20.4093
573.95        20.53587
574.38        20.56832
574.82        20.31483
