SpectraSmart Spectrum 2.9.0.0
--------- Device Information -----------
Spectrum Name :  反射率_0
Saving Time :  2024/05/03 20:53:11
Spectro-Module Model Name : SE2030-DUVN
Spectro-Module Serial Number : OS361AC55029948
Wavelength Start : 200
Wavelength End : 1025
Wavelength Unit : Wavelength(nm)
Spectrum Unit : Reflectance(%)
-----------Spectrum Setting ------------
Integration Time : 20ms
Average : 10
Boxcar : 0
Background removal :  enabled
linearity correction :  enabled
SC :  disabled
Intensity correction :  disabled
DWT denoise :  enabled
savitzky-golay :  disabled
FFT :  disabled
Running average :  disabled
Kalman :  disabled
High pass :  disabled
---------------BEGIN--------------------
Wavelength(nm)             Reflectance(%)
200.29               0
200.75        109.8893
201.21        205.3369
201.67       -5917.303
202.13       -181.6103
202.58       -86.50532
203.04       -48.73391
203.50       -29.54584
203.96       -24.31662
204.42       -33.59055
204.88       -88.55994
205.34        1983.683
205.80        192.5755
206.26        181.8771
206.72         27537.2
207.18       -43.37327
207.64       -10.90519
208.10       -14.18807
208.55       -55.06863
209.01       -508.1528
209.47       -751.6597
209.93       -90.90871
210.39       -23.56623
210.85       -6.287926
211.31       -3.623571
211.77       -9.387734
212.23       -28.01573
212.69       -81.67715
213.14       -136.1329
213.60       -84.09959
214.06       -38.78561
214.52       -19.20916
214.98       -13.56091
215.44       -16.65555
215.90       -41.79037
216.36         304.033
216.81        44.22122
217.27        13.09265
217.73       -35.87789
218.19       -261.5057
218.65       -5079.964
219.11       -161.2997
219.57        69.99559
220.02        125.7904
220.48        255.9136
220.94       -199.7708
221.40       -19.45498
221.86        8.805717
222.32        13.68055
222.77        8.367964
223.23       -5.489597
223.69        -28.5767
224.15       -43.81958
224.61        -35.8708
225.06       -18.53718
225.52       -4.247602
225.98        3.589164
226.44        7.009875
226.90        8.251882
227.36        8.472915
227.81         9.58247
228.27        11.95858
228.73        14.33774
229.19        15.28387
229.65        13.92721
230.10        11.11326
230.56        7.985725
231.02        5.909152
231.48        6.323914
231.93        8.891277
232.39        12.64961
232.85         16.4638
233.31        18.69125
233.77        19.04424
234.22        18.12779
234.68        16.59682
235.14        15.52431
235.60        15.33506
236.05        15.68555
236.51         16.5722
236.97        17.95081
237.43        19.47375
237.88        21.23395
238.34        22.76365
238.80        23.29522
239.26        22.58457
239.71        22.76475
240.17        18.90071
240.63        14.61752
241.08        9.934719
241.54        6.660309
242.00        5.646073
242.46        5.901572
242.91        6.943214
243.37        9.742394
243.83        14.26418
244.28         15.0237
244.74        5.824332
245.20       -10.86619
245.66       -25.27788
246.11       -31.34485
246.57       -30.52776
247.03       -25.30278
247.48       -19.12181
247.94       -15.62179
248.40       -14.64818
248.85       -15.52772
249.31       -15.87366
249.77       -12.36038
250.22       -5.958617
250.68       0.4339341
251.14        5.092107
251.59        7.195507
252.05        7.366198
252.51        6.479923
252.96        5.035638
253.42         5.48964
253.88        9.490652
254.33        15.19128
254.79        21.75693
255.25        28.20826
255.70        33.25896
256.16        36.97627
256.62        39.34343
257.07        40.48189
257.53        41.03598
257.99        41.06295
258.44        40.62202
258.90        40.17482
259.35        39.52462
259.81        38.98716
260.27         38.3379
260.72        37.38805
261.18        36.45094
261.63          35.489
262.09        34.78208
262.55        34.38534
263.00        34.18687
263.46        34.12049
263.91        34.01405
264.37         33.8305
264.83        33.49664
265.28         33.0392
265.74        32.45672
266.19         31.5722
266.65        30.49044
267.11         29.2502
267.56        28.04358
268.02        27.19511
268.47        26.71237
268.93        26.51128
269.38        26.40325
269.84        26.06592
270.30        25.44811
270.75        24.66489
271.21         23.9179
271.66        23.41881
272.12        23.20793
272.57        23.16724
273.03         23.1743
273.48        23.07515
273.94        22.82458
274.39        22.47903
274.85        22.07335
275.31        21.58497
275.76        21.03061
276.22        20.45548
276.67        19.93216
277.13        19.63209
277.58        19.51693
278.04        19.54898
278.49        19.56196
278.95        19.34351
279.40        18.85118
279.86        18.24145
280.31        17.62271
280.77        17.20507
281.22        16.97097
281.68        16.86896
282.13        16.82777
282.59        16.79022
283.04        16.71777
283.50        16.64323
283.95        16.54239
284.41        16.38377
284.86        16.16955
285.32        15.93527
285.77        15.71806
286.22        15.62313
286.68        15.66927
287.13        15.79578
287.59        15.97821
288.04        16.15214
288.50        16.30486
288.95        16.43455
289.41        16.52302
289.86        16.50416
290.32        16.40234
290.77        16.24302
291.22        16.11108
291.68        16.12254
292.13        16.30321
292.59        16.64624
293.04        17.11165
293.50        17.63621
293.95        18.18002
294.40        18.75458
294.86        19.37486
295.31        20.07598
295.77        20.86436
296.22        21.70867
296.68         22.5632
297.13        23.34999
297.58        24.02661
298.04          24.621
298.49        25.13243
298.95        25.60177
299.40        26.04101
299.85        26.45112
300.31        26.89432
300.76        27.43716
301.21        28.09341
301.67        28.84647
302.12         29.5852
302.58        30.15026
303.03        30.49687
303.48        30.68056
303.94        30.83954
304.39        31.13235
304.84        31.60645
305.30        32.19691
305.75        32.78053
306.20        33.19609
306.66        33.41526
307.11        33.48188
307.57         33.4812
308.02        33.47343
308.47        33.50731
308.93        33.56276
309.38        33.63431
309.83        33.75475
310.29        33.91836
310.74        34.10746
311.19        34.27573
311.65        34.34083
312.10        34.27438
312.55        34.09821
313.00        33.85392
313.46        33.61292
313.91        33.38966
314.36        33.18632
314.82        32.99169
315.27        32.77422
315.72        32.53723
316.18        32.29222
316.63        32.07523
317.08        31.94279
317.53        31.89759
317.99        31.91258
318.44        31.92335
318.89        31.81123
319.35        31.55007
319.80        31.17612
320.25        30.76599
320.70        30.44658
321.16        30.24296
321.61        30.12162
322.06         30.0187
322.51        29.83144
322.97        29.53131
323.42         29.1651
323.87        28.77096
324.32        28.41137
324.78        28.10415
325.23        27.83236
325.68        27.58754
326.13        27.36349
326.59        27.14189
327.04        26.94397
327.49        26.73903
327.94         26.4829
328.39        26.16766
328.85        25.79804
329.30        25.42303
329.75        25.10345
330.20        24.86191
330.66        24.67614
331.11        24.53269
331.56        24.37201
332.01        24.17418
332.46        23.94973
332.92        23.70644
333.37        23.48922
333.82        23.29823
334.27        23.12575
334.72        22.95287
335.17           22.75
335.63        22.50867
336.08         22.2581
336.53         22.0299
336.98        21.88281
337.43        21.82647
337.88        21.83548
338.34        21.86723
338.79         21.8555
339.24        21.77699
339.69        21.65122
340.14        21.48597
340.59        21.29849
341.05        21.10089
341.50        20.88852
341.95        20.68811
342.40         20.5467
342.85        20.47207
343.30        20.45751
343.75        20.45584
344.20        20.38626
344.66        20.24102
345.11        20.04216
345.56        19.84657
346.01        19.74179
346.46        19.74364
346.91        19.81258
347.36        19.90773
347.81        19.96726
348.26        19.96887
348.72        19.93649
349.17        19.86091
349.62        19.73336
350.07        19.56469
350.52        19.35961
350.97        19.16561
351.42        19.06043
351.87        19.05464
352.32        19.12071
352.77        19.20373
353.22        19.21299
353.67        19.12421
354.13        18.97324
354.58        18.77804
355.03        18.58411
355.48        18.41497
355.93        18.26584
356.38        18.14923
356.83        18.08629
357.28        18.07458
357.73        18.09948
358.18        18.14825
358.63        18.19677
359.08        18.22829
359.53        18.24465
359.98        18.20846
360.43        18.06777
360.88        17.82129
361.33        17.48528
361.78        17.13803
362.23        16.89986
362.68        16.79704
363.13        16.80469
363.58        16.83711
364.03        16.75224
364.48        16.52345
364.93        16.19869
365.38        15.87999
365.83         15.7236
366.28        15.75952
366.73        15.93108
367.18        16.13629
367.63        16.21207
368.08         16.1128
368.53        15.88914
368.98         15.6194
369.43        15.42176
369.88        15.32928
370.33        15.30661
370.78        15.30459
371.23        15.24533
371.68        15.10711
372.13         14.9177
372.58        14.72668
373.03        14.60265
373.48        14.55829
373.93        14.57132
374.38        14.58308
374.83        14.50092
375.28        14.30876
375.72        14.03629
376.17        13.77176
376.62         13.6156
377.07        13.58466
377.52        13.64172
377.97        13.72339
378.42        13.72762
378.87        13.62943
379.32        13.46708
379.77        13.28759
380.22         13.1545
380.67        13.08301
381.11        13.05369
381.56        13.04239
382.01        13.02043
382.46        12.97918
382.91        12.93197
383.36         12.8875
383.81        12.85633
384.26        12.83759
384.71        12.81901
385.15        12.79132
385.60        12.75803
386.05        12.71239
386.50        12.66039
386.95        12.59375
387.40        12.49804
387.85        12.38095
388.29        12.24981
388.74        12.14628
389.19        12.09955
389.64        12.11244
390.09        12.16869
390.54        12.25055
390.98         12.3166
391.43        12.35551
391.88        12.39792
392.33        12.43094
392.78        12.37827
393.23        12.27499
393.67        12.24429
394.12        12.28584
394.57        12.26935
395.02        12.18969
395.47        12.11673
395.91        12.05668
396.36        11.97887
396.81        11.89605
397.26        11.82383
397.71        11.75871
398.15        11.70834
398.60        11.68943
399.05        11.62753
399.50        11.55116
399.95        11.63494
400.39        11.82265
400.84        11.77728
401.29          11.528
401.74        11.40472
402.18        11.42784
402.63        11.42183
403.08        11.39418
403.53         11.3426
403.97        11.42695
404.42        11.49126
404.87        11.55246
405.32        11.55626
405.76        11.49304
406.21        11.38305
406.66        11.26064
407.11         11.1837
407.55        11.16933
408.00        11.19909
408.45        11.24606
408.90        11.25916
409.34        11.22158
409.79        11.14711
410.24        11.06499
410.68        11.01399
411.13        11.00321
411.58        11.02207
412.03        11.03751
412.47        10.99712
412.92        10.89019
413.37         10.7402
413.81         10.5983
414.26        10.54423
414.71         10.5841
415.15        10.69994
415.60        10.82902
416.05        10.86808
416.49        10.79024
416.94        10.63336
417.39        10.46365
417.83        10.37681
418.28        10.39386
418.73        10.47959
419.17        10.59593
419.62        10.67354
420.07        10.68812
420.51        10.66084
420.96         10.6044
421.41         10.5289
421.85        10.43897
422.30        10.33707
422.74        10.23527
423.19        10.18479
423.64        10.18105
424.08        10.20266
424.53        10.21766
424.98        10.21455
425.42        10.19059
425.87        10.11993
426.31        10.03423
426.76        10.04659
427.21        10.13594
427.65        10.14818
428.10        10.09548
428.54        10.10212
428.99        10.17234
429.44        10.29192
429.88        10.39179
430.33        10.30718
430.77        10.08702
431.22        9.965336
431.66        9.974894
432.11        10.04071
432.56        10.12699
433.00         10.2276
433.45        10.24071
433.89        10.12637
434.34        9.617781
434.78        9.599762
435.23        9.971373
435.67        10.08445
436.12        9.931437
436.57        9.869721
437.01        9.926919
437.46        9.957475
437.90        9.959419
438.35        9.974326
438.79        9.978559
439.24        9.927593
439.68        9.825872
440.13        9.713657
440.57        9.612657
441.02        9.549508
441.46        9.532711
441.91        9.547368
442.35        9.572665
442.80        9.650592
443.24        9.742288
443.69        9.744541
444.13        9.670755
444.58         9.64506
445.02        9.675194
445.47        9.689939
445.91         9.68427
446.36        9.688477
446.80        9.698475
447.24        9.708945
447.69         9.71471
448.13        9.705395
448.58        9.681528
449.02          9.6476
449.47        9.611341
449.91         9.57911
450.36        9.556414
450.80        9.539947
451.25        9.533559
451.69        9.539268
452.13        9.556013
452.58        9.582569
453.02        9.608217
453.47         9.62121
453.91        9.617702
454.36        9.598571
454.80        9.569054
455.24        9.551625
455.69         9.55407
456.13        9.536594
456.58        9.495169
457.02        9.534481
457.46        9.499876
457.91        9.430199
458.35         9.30671
458.79        9.263318
459.24        9.294564
459.68        9.283065
460.13        9.242085
460.57        9.236888
461.01        9.273118
461.46        9.307874
461.90        9.331092
462.34        9.335885
462.79        9.316813
463.23        9.275363
463.68        9.229092
464.12        9.198326
464.56        9.189242
465.01        9.222097
465.45        9.267009
465.89        9.252352
466.34        9.199789
466.78        9.205981
467.22        9.273502
467.67        9.320502
468.11        9.335294
468.55        9.328113
468.99         9.30417
469.44        9.285165
469.88        9.275881
470.32        9.253831
470.77        9.233363
471.21        9.251637
471.65        9.310233
472.10        9.398054
472.54        9.483193
472.98        9.521607
473.42        9.505877
473.87        9.455197
474.31        9.394491
474.75        9.371817
475.20        9.401939
475.64        9.463194
476.08        9.535454
476.52        9.602261
476.97        9.656286
477.41        9.675312
477.85        9.656584
478.29        9.779764
478.74        9.723136
479.18        9.815805
479.62        9.930487
480.06        9.972907
480.50        9.932314
480.95        9.864749
481.39        9.810645
481.83        9.817468
482.27        9.906273
482.72        10.07859
483.16        10.27626
483.60        10.41633
484.04         10.4781
484.48        10.42727
484.93        10.39804
485.37        10.60465
485.81        10.94767
486.25        11.32626
486.69        11.18514
487.14        10.89382
487.58        11.30736
488.02        11.30618
488.46        11.47954
488.90        11.12613
489.34         11.0849
489.79        11.17085
490.23        11.53607
490.67        11.92901
491.11        12.23143
491.55        12.26021
491.99        12.08191
492.43        12.08916
492.88        12.31266
493.32        12.50521
493.76        12.62442
494.20        12.74033
494.64         12.8492
495.08        12.93158
495.52        13.01337
495.96        13.14688
496.41        13.33698
496.85        13.54227
497.29        13.74138
497.73        13.95055
498.17        14.13483
498.61        14.20747
499.05        14.18753
499.49        14.16305
499.93        14.18298
500.37        14.30279
500.82        14.50261
501.26        14.66295
501.70         14.7656
502.14        14.88842
502.58        15.02063
503.02         15.1024
503.46        15.13151
503.90        15.12833
504.34        15.11378
504.78        15.12408
505.22        15.17225
505.66        15.24346
506.10        15.32613
506.54        15.43585
506.98        15.57236
507.42        15.67016
507.86        15.69569
508.30        15.93766
508.74        15.83526
509.18        15.84378
509.62        15.82532
510.06        15.84348
510.50        15.90562
510.94        16.00298
511.38        16.11222
511.82        16.17673
512.26        16.18494
512.70        16.15633
513.14        16.11248
513.58        16.08745
514.02        16.09136
514.46        16.11027
514.90        16.14077
515.34         16.1776
515.78        16.21574
516.22        16.26041
516.66        16.29489
517.10        16.29148
517.54        16.24801
517.98        16.17104
518.42         16.0939
518.86          16.071
519.30        16.11202
519.74        16.20021
520.18        16.29454
520.62         16.3274
521.06        16.28194
521.50        16.17901
521.93        16.05544
522.37        15.97116
522.81         15.9415
523.25        15.94842
523.69        15.96661
524.13        15.95604
524.57        15.90765
525.01        15.83857
525.45        15.76735
525.89        15.72148
526.32        15.70699
526.76        15.71255
527.20         15.7277
527.64        15.73941
528.08        15.74017
528.52        15.73235
528.96        15.70997
529.40        15.66384
529.83        15.59256
530.27        15.50369
530.71        15.40674
531.15        15.31896
531.59        15.24523
532.03        15.18223
532.46        15.12755
532.90        15.07701
533.34        15.03051
533.78        14.99327
534.22        14.95965
534.66        14.91908
535.09        14.86767
535.53        14.80796
535.97        14.75407
536.41        14.71959
536.85        14.70703
537.28        14.75055
537.72        14.82277
538.16         14.7847
538.60        14.67609
539.04        14.71334
539.47        14.87636
539.91        14.96252
540.35        14.96307
540.79        14.99819
541.22        15.07149
541.66        15.14332
542.10        15.21597
542.54        15.28037
542.97        15.34528
543.41        15.48546
543.85        15.67628
544.29        15.79629
544.72        15.85322
545.16        15.97319
545.60        16.15783
546.04        16.33983
546.47        16.50587
546.91        16.66435
547.35        16.80967
547.79        16.94558
548.22        17.08006
548.66        17.22468
549.10        17.38926
549.53         17.6124
549.97        17.86659
550.41          18.065
550.84        18.19045
551.28        18.28416
551.72        18.36634
552.15        18.45516
552.59        18.57025
553.03         18.6989
553.46        18.82997
553.90        18.97253
554.34        19.11563
554.77        19.24091
555.21        19.36108
555.65         19.5113
556.08        19.68804
556.52        19.87251
556.96         20.0403
557.39         20.1749
557.83        20.27781
558.27        20.32815
558.70        20.34806
559.14        20.42164
559.57        20.53628
560.01        20.60206
560.45        20.62289
560.88        20.67828
561.32        20.78075
561.75        20.87222
562.19        20.96595
562.63        21.05951
563.06        21.14428
563.50        21.29012
563.93        21.45836
564.37        21.44185
564.80        21.30485
565.24        21.40969
565.68        21.71729
566.11        21.89319
566.55        21.92758
566.98        21.99581
567.42        22.10809
567.85        22.25515
568.29        22.28153
568.72        22.36498
569.16        22.50274
569.60        22.63003
570.03        22.72631
570.47        23.23592
570.90        23.22761
571.34        23.59223
571.77        23.86566
572.21        23.79527
572.64        24.02108
573.08         23.8919
573.51        24.39835
573.95        24.45567
574.38        24.37749
574.82         24.1969
