SpectraSmart Spectrum 2.9.0.0
--------- Device Information -----------
Spectrum Name :  反射率_0
Saving Time :  2024/05/03 20:53:37
Spectro-Module Model Name : SE2030-DUVN
Spectro-Module Serial Number : OS361AC55029948
Wavelength Start : 200
Wavelength End : 1025
Wavelength Unit : Wavelength(nm)
Spectrum Unit : Reflectance(%)
-----------Spectrum Setting ------------
Integration Time : 20ms
Average : 10
Boxcar : 0
Background removal :  enabled
linearity correction :  enabled
SC :  disabled
Intensity correction :  disabled
DWT denoise :  enabled
savitzky-golay :  disabled
FFT :  disabled
Running average :  disabled
Kalman :  disabled
High pass :  disabled
---------------BEGIN--------------------
Wavelength(nm)             Reflectance(%)
200.29               0
200.75        81.10478
201.21        164.1219
201.67       -5414.623
202.13       -190.1773
202.58       -103.1989
203.04       -69.49677
203.50       -54.05302
203.96       -54.26002
204.42       -74.53307
204.88       -168.0447
205.34        3244.432
205.80        295.5976
206.26        283.4229
206.72        47917.11
207.18       -109.3605
207.64       -59.80254
208.10         -81.724
208.55       -210.0207
209.01       -1516.633
209.47        -2069.76
209.93       -251.6066
210.39       -70.33936
210.85       -22.05667
211.31       -8.253024
211.77       -9.036972
212.23       -24.92787
212.69        -77.1189
213.14       -130.8168
213.60       -80.03548
214.06       -36.70105
214.52       -19.51604
214.98       -18.66435
215.44       -33.00877
215.90       -98.88798
216.36        804.8702
216.81        152.2021
217.27        115.6817
217.73        115.5667
218.19        191.2241
218.65        2418.543
219.11         274.425
219.57        149.1966
220.02        144.0118
220.48        249.5197
220.94       -180.4938
221.40       -16.03267
221.86        9.250385
222.32        15.14323
222.77        13.77496
223.23        7.465145
223.69       -3.679231
224.15       -10.60041
224.61       -5.767617
225.06        3.212239
225.52        10.63786
225.98        15.26344
226.44        18.20035
226.90          20.698
227.36        22.65821
227.81        22.91861
228.27         21.2528
228.73        18.70234
229.19        16.31241
229.65        14.81861
230.10         14.1696
230.56        14.15009
231.02        14.79567
231.48         16.2613
231.93        18.33543
232.39        20.81055
232.85        23.21221
233.31        24.82175
233.77        25.54202
234.22        25.59962
234.68        25.39159
235.14        25.58474
235.60         26.4178
236.05        27.76319
236.51         29.3931
236.97         30.8141
237.43        31.69285
237.88        32.30098
238.34          32.795
238.80        33.28798
239.26        33.90149
239.71        36.89986
240.17        39.02789
240.63        42.60775
241.08        44.33296
241.54        42.95867
242.00        40.09952
242.46        37.95512
242.91        36.69598
243.37         35.2882
243.83        32.11612
244.28        22.64486
244.74        6.951119
245.20       -8.333753
245.66       -17.24951
246.11       -19.97043
246.57       -18.80224
247.03       -14.90816
247.48       -10.89502
247.94       -9.795869
248.40       -11.36872
248.85       -15.04563
249.31       -18.84215
249.77       -19.00956
250.22       -15.24607
250.68       -10.26318
251.14       -5.251087
251.59      -0.2317514
252.05        5.969445
252.51        15.36407
252.96        28.70329
253.42        41.67492
253.88        47.66399
254.33        46.49342
254.79        42.67423
255.25        40.29621
255.70        39.63417
256.16        39.89309
256.62         40.6296
257.07        41.70754
257.53        43.25351
257.99        44.92991
258.44         46.2804
258.90        47.17332
259.35         47.2692
259.81         47.1134
260.27        46.61683
260.72        45.73957
261.18        44.87087
261.63        43.88021
262.09        43.08735
262.55        42.52139
263.00         42.0752
263.46        41.74518
263.91        41.37065
264.37         40.9659
264.83        40.47944
265.28        39.93914
265.74        39.36051
266.19        38.55287
266.65        37.62171
267.11        36.57278
267.56        35.59541
268.02        35.03511
268.47         34.8785
268.93        35.03234
269.38        35.22545
269.84        34.99702
270.30        34.27531
270.75        33.22594
271.21        32.17372
271.66        31.49314
272.12        31.25995
272.57        31.29297
273.03        31.40379
273.48         31.3256
273.94        30.97856
274.39        30.45587
274.85        29.81136
275.31        29.02655
275.76        28.14381
276.22        27.24342
276.67        26.42361
277.13        25.91128
277.58        25.66226
278.04        25.62345
278.49         25.6269
278.95        25.46587
279.40        25.06768
279.86        24.57534
280.31          24.034
280.77        23.60158
281.22        23.25119
281.68          22.975
282.13        22.73218
282.59        22.53349
283.04         22.3557
283.50        22.21232
283.95        22.08723
284.41        21.97356
284.86        21.85547
285.32        21.76475
285.77        21.66379
286.22        21.55199
286.68        21.44273
287.13        21.31161
287.59        21.22985
288.04        21.25951
288.50        21.41568
288.95        21.64854
289.41        21.87616
289.86        21.92529
290.32        21.79365
290.77        21.53522
291.22         21.2752
291.68        21.18316
292.13        21.29378
292.59        21.58166
293.04        21.98087
293.50        22.39537
293.95        22.77937
294.40        23.16005
294.86        23.58516
295.31        24.12646
295.77        24.79714
296.22        25.55571
296.68        26.32111
297.13        26.96176
297.58        27.42812
298.04        27.77028
298.49         28.0375
298.95        28.34581
299.40        28.71502
299.85        29.12217
300.31        29.57281
300.76        30.04428
301.21        30.53488
301.67        31.05954
302.12        31.56292
302.58        31.97605
303.03          32.271
303.48        32.46815
303.94        32.66133
304.39        32.94184
304.84        33.34166
305.30        33.82057
305.75        34.27165
306.20        34.56078
306.66        34.67213
307.11        34.63765
307.57        34.54975
308.02        34.47922
308.47        34.47182
308.93        34.50412
309.38        34.55075
309.83        34.61144
310.29         34.6778
310.74        34.74833
311.19        34.79539
311.65        34.76844
312.10        34.64928
312.55         34.4455
313.00        34.20527
313.46        34.00929
313.91        33.86492
314.36        33.77163
314.82        33.67533
315.27        33.47582
315.72         33.1685
316.18        32.78731
316.63        32.43095
317.08        32.25814
317.53        32.29451
317.99        32.48137
318.44        32.69955
318.89        32.73563
319.35        32.53419
319.80        32.16161
320.25         31.7233
320.70         31.3936
321.16        31.21346
321.61        31.12819
322.06        31.07409
322.51        30.95191
322.97         30.7279
323.42        30.45343
323.87        30.14101
324.32        29.80771
324.78        29.46687
325.23        29.11805
325.68        28.79531
326.13        28.56433
326.59        28.42644
327.04        28.38339
327.49        28.37088
327.94        28.28688
328.39        28.09957
328.85        27.82242
329.30        27.51473
329.75         27.2547
330.20         27.0704
330.66        26.93106
331.11         26.8159
331.56        26.65337
332.01        26.42889
332.46        26.16997
332.92         25.9064
333.37        25.71841
333.82        25.61335
334.27         25.5649
334.72        25.54736
335.17        25.51918
335.63        25.45235
336.08        25.37318
336.53        25.26405
336.98        25.10803
337.43        24.91095
337.88        24.68209
338.34        24.45894
338.79        24.30627
339.24        24.24038
339.69        24.24784
340.14        24.29916
340.59        24.34269
341.05        24.35756
341.50        24.35357
341.95        24.33682
342.40        24.32442
342.85        24.31821
343.30        24.30564
343.75        24.27089
344.20        24.19491
344.66        24.08339
345.11        23.94334
345.56        23.79921
346.01         23.6816
346.46        23.60241
346.91        23.55747
347.36        23.53957
347.81        23.53513
348.26         23.5398
348.72        23.55846
349.17        23.58559
349.62        23.62132
350.07        23.65785
350.52        23.67886
350.97        23.68053
351.42        23.66244
351.87        23.61891
352.32        23.55167
352.77        23.43693
353.22        23.23728
353.67        22.96281
354.13           22.65
354.58        22.34909
355.03        22.15353
355.48        22.08359
355.93        22.10934
356.38        22.19397
356.83        22.27788
357.28        22.33225
357.73        22.36464
358.18        22.36182
358.63        22.30475
359.08        22.19664
359.53        22.04623
359.98        21.87436
360.43        21.72016
360.88         21.5941
361.33        21.47945
361.78        21.38835
362.23        21.33496
362.68        21.31179
363.13         21.3185
363.58        21.29022
364.03        21.12358
364.48        20.81079
364.93        20.39075
365.38        19.97459
365.83         19.7333
366.28        19.70324
366.73        19.83465
367.18        20.02422
367.63        20.09971
368.08        20.01099
368.53        19.80604
368.98        19.56254
369.43        19.40008
369.88        19.34759
370.33        19.36417
370.78        19.38658
371.23        19.31567
371.68        19.12769
372.13        18.86155
372.58        18.58586
373.03        18.39745
373.48        18.31809
373.93        18.31854
374.38        18.33817
374.83        18.27906
375.28         18.1178
375.72        17.88083
376.17        17.64528
376.62        17.49084
377.07         17.4312
377.52        17.43437
377.97        17.44885
378.42        17.39474
378.87        17.25671
379.32        17.07011
379.77        16.87815
380.22        16.73761
380.67        16.65979
381.11        16.62552
381.56        16.61155
382.01        16.59272
382.46        16.55926
382.91        16.52372
383.36        16.48114
383.81        16.42208
384.26        16.34611
384.71        16.24964
385.15        16.14901
385.60        16.09082
386.05         16.0734
386.50        16.08189
386.95        16.08255
387.40        16.02143
387.85        15.89681
388.29        15.73335
388.74        15.57546
389.19        15.44835
389.64        15.36063
390.09        15.29344
390.54        15.26874
390.98        15.30619
391.43        15.40184
391.88        15.57179
392.33        15.73578
392.78        15.70003
393.23        15.49801
393.67        15.32331
394.12         15.2333
394.57        15.15712
395.02        15.10629
395.47        15.13022
395.91        15.19296
396.36        15.18379
396.81        15.09224
397.26         14.9642
397.71        14.80686
398.15        14.64655
398.60         14.5195
399.05        14.33367
399.50        14.14682
399.95        14.20308
400.39         14.4363
400.84        14.42941
401.29        14.19597
401.74        14.10101
402.18        14.15834
402.63        14.15952
403.08        14.12156
403.53        14.05738
403.97        14.16934
404.42        14.25414
404.87        14.33588
405.32        14.35481
405.76        14.29784
406.21        14.19045
406.66        14.05796
407.11        13.94391
407.55        13.86559
408.00        13.80773
408.45        13.76648
408.90        13.73077
409.34        13.69625
409.79        13.66958
410.24        13.65109
410.68        13.63589
411.13        13.62398
411.58        13.61278
412.03        13.59819
412.47        13.57977
412.92        13.55201
413.37        13.51373
413.81        13.47086
414.26        13.44605
414.71        13.43567
415.15        13.44481
415.60        13.44196
416.05        13.38798
416.49         13.2816
416.94        13.14228
417.39        13.02165
417.83        12.99301
418.28        13.06675
418.73        13.21349
419.17        13.38193
419.62        13.47709
420.07        13.46912
420.51        13.38135
420.96        13.24811
421.41        13.11188
421.85        12.98563
422.30        12.86964
422.74        12.75898
423.19        12.68402
423.64        12.63527
424.08        12.59541
424.53        12.55656
424.98        12.55816
425.42        12.60732
425.87        12.64962
426.31        12.68068
426.76        12.77505
427.21        12.88836
427.65        12.84404
428.10        12.68485
428.54        12.61275
428.99        12.65043
429.44        12.76669
429.88        12.87467
430.33        12.76871
430.77        12.50504
431.22        12.37724
431.66        12.41481
432.11        12.50382
432.56        12.59478
433.00         12.6831
433.45        12.65712
433.89        12.49947
434.34        11.88648
434.78         11.8972
435.23        12.39603
435.67        12.55866
436.12        12.36896
436.57        12.28335
437.01        12.33523
437.46        12.34184
437.90        12.30642
438.35        12.28159
438.79        12.25957
439.24        12.21935
439.68        12.16697
440.13         12.1376
440.57        12.12347
441.02         12.0979
441.46        12.05717
441.91        12.00523
442.35        11.94292
442.80        11.95748
443.24        12.00992
443.69        11.96234
444.13        11.83549
444.58        11.78742
445.02        11.82689
445.47        11.86973
445.91        11.89427
446.36        11.91127
446.80         11.9121
447.24         11.8972
447.69        11.87978
448.13        11.88102
448.58        11.90566
449.02        11.94166
449.47        11.97843
449.91        11.99294
450.36         11.9831
450.80        11.95627
451.25        11.91817
451.69        11.87293
452.13        11.82561
452.58        11.77446
453.02        11.73006
453.47        11.71473
453.91        11.73035
454.36        11.77209
454.80          11.812
455.24        11.82123
455.69        11.79907
456.13        11.71403
456.58        11.60173
457.02        11.65292
457.46        11.68794
457.91        11.72683
458.35        11.70426
458.79        11.72808
459.24        11.77714
459.68        11.72414
460.13         11.6084
460.57        11.54582
461.01        11.55462
461.46        11.57366
461.90        11.58643
462.34        11.58022
462.79        11.54642
463.23        11.49032
463.68        11.43699
464.12        11.41471
464.56        11.42804
465.01        11.49754
465.45        11.57527
465.89        11.55838
466.34        11.47323
466.78        11.44658
467.22        11.49145
467.67        11.52454
468.11        11.53905
468.55        11.54263
468.99         11.5386
469.44        11.54748
469.88        11.57194
470.32        11.58572
470.77        11.59862
471.21        11.64552
471.65        11.72349
472.10        11.81533
472.54        11.89301
472.98        11.92149
473.42        11.89489
473.87        11.83499
474.31        11.75082
474.75        11.66723
475.20        11.60246
475.64        11.54713
476.08        11.51614
476.52        11.54774
476.97        11.64452
477.41        11.76174
477.85        11.85818
478.29        12.09219
478.74        12.04651
479.18        12.14306
479.62        12.24856
480.06        12.28673
480.50        12.25398
480.95        12.20288
481.39        12.16454
481.83        12.17184
482.27          12.245
482.72         12.3939
483.16        12.56271
483.60        12.68504
484.04        12.75718
484.48        12.68015
484.93        12.58724
485.37        12.87073
485.81         13.4382
486.25        13.54473
486.69        13.43321
487.14        13.15187
487.58        13.69739
488.02        13.51809
488.46        13.58911
488.90        13.45653
489.34        13.25761
489.79        13.30286
490.23        13.52823
490.67        13.89305
491.11        14.26175
491.55        14.30444
491.99        14.08739
492.43        14.08692
492.88        14.33321
493.32        14.52596
493.76        14.63027
494.20         14.7527
494.64        14.89173
495.08        15.01885
495.52        15.13826
495.96         15.2684
496.41        15.40894
496.85        15.52768
497.29        15.63647
497.73        15.80872
498.17        16.01654
498.61        16.14487
499.05        16.18263
499.49        16.17511
499.93        16.16414
500.37        16.23267
500.82        16.37871
501.26        16.50046
501.70           16.59
502.14        16.72375
502.58        16.88478
503.02        17.00036
503.46        17.06174
503.90        17.09068
504.34        17.10501
504.78        17.13441
505.22        17.19028
505.66        17.26031
506.10        17.32712
506.54        17.40352
506.98        17.49279
507.42        17.52393
507.86        17.48661
508.30        17.74386
508.74        17.67783
509.18        17.78448
509.62        17.87057
510.06         17.9425
510.50        17.99341
510.94        18.03014
511.38        18.06565
511.82        18.10345
512.26        18.14555
512.70        18.18881
513.14        18.22087
513.58        18.22326
514.02        18.19367
514.46        18.13942
514.90        18.07889
515.34        18.04069
515.78        18.03493
516.22         18.0587
516.66        18.09559
517.10        18.11822
517.54        18.12028
517.98        18.10691
518.42         18.1011
518.86        18.14001
519.30        18.22611
519.74        18.34229
520.18        18.44796
520.62        18.47921
521.06        18.42227
521.50        18.29916
521.93        18.14903
522.37        18.03653
522.81        17.97917
523.25        17.95863
523.69        17.95661
524.13         17.9416
524.57        17.90561
525.01        17.86602
525.45         17.8236
525.89        17.77786
526.32        17.72962
526.76        17.67232
527.20        17.62598
527.64        17.62671
528.08        17.67418
528.52        17.75601
528.96        17.82084
529.40        17.78673
529.83        17.64018
530.27        17.41669
530.71        17.17944
531.15        17.02794
531.59        16.98581
532.03        17.02235
532.46        17.09428
532.90        17.13064
533.34         17.1102
533.78        17.05898
534.22        16.99215
534.66        16.92985
535.09        16.87703
535.53        16.82447
535.97         16.7793
536.41        16.74479
536.85        16.72098
537.28        16.75474
537.72        16.82119
538.16        16.77068
538.60        16.64992
539.04        16.69914
539.47        16.89323
539.91        16.99923
540.35        17.00526
540.79        17.05032
541.22        17.13265
541.66        17.19783
542.10        17.24858
542.54        17.27701
542.97        17.30867
543.41        17.45166
543.85        17.68125
544.29        17.85254
544.72        17.95228
545.16         18.0893
545.60        18.25826
546.04        18.39295
546.47        18.49909
546.91        18.62012
547.35        18.75907
547.79        18.91059
548.22        19.06667
548.66        19.21427
549.10        19.35816
549.53        19.54947
549.97        19.77247
550.41        19.95547
550.84        20.08586
551.28        20.20105
551.72        20.30701
552.15         20.3989
552.59        20.49396
553.03        20.58807
553.46        20.68485
553.90        20.81754
554.34        20.97889
554.77        21.13942
555.21        21.30165
555.65        21.48647
556.08        21.68344
556.52        21.87644
556.96        22.04205
557.39        22.16733
557.83        22.25613
558.27        22.28401
558.70        22.27611
559.14        22.32645
559.57        22.42344
560.01        22.47184
560.45        22.47781
560.88        22.52906
561.32        22.63921
561.75        22.74375
562.19        22.85702
562.63         22.9769
563.06        23.09151
563.50        23.27411
563.93        23.47715
564.37        23.46597
564.80        23.30968
565.24        23.40925
565.68        23.72381
566.11        23.89173
566.55        23.90575
566.98        23.95473
567.42        24.05495
567.85        24.21357
568.29        24.27238
568.72        24.37569
569.16        24.50349
569.60        24.65998
570.03        24.83086
570.47        25.04591
570.90        25.28089
571.34        25.38124
571.77        25.67082
572.21        25.70465
572.64        25.74168
573.08        25.73313
573.51         26.1796
573.95        26.27698
574.38        26.22191
574.82         26.0944
