SpectraSmart Spectrum 2.9.0.0
--------- Device Information -----------
Spectrum Name :  反射率_0
Saving Time :  2024/04/26 22:34:39
Spectro-Module Model Name : SE2030-DUVN
Spectro-Module Serial Number : OS361AC55029948
Wavelength Start : 200
Wavelength End : 1025
Wavelength Unit : Wavelength(nm)
Spectrum Unit : Reflectance(%)
-----------Spectrum Setting ------------
Integration Time : 20ms
Average : 10
Boxcar : 0
Background removal :  enabled
linearity correction :  enabled
SC :  disabled
Intensity correction :  disabled
DWT denoise :  enabled
savitzky-golay :  disabled
FFT :  disabled
Running average :  disabled
Kalman :  disabled
High pass :  disabled
---------------BEGIN--------------------
Wavelength(nm)             Reflectance(%)
200.29               0
200.75        69.40636
201.21        68.91216
201.67        68.17253
202.13        67.27172
202.58        66.13523
203.04         64.7308
203.50        63.74278
203.96         64.8935
204.42        69.04818
204.88        76.03961
205.34        82.61099
205.80        83.24255
206.26        77.34864
206.72        67.59918
207.18        58.51803
207.64        53.42707
208.10        52.16035
208.55        54.34637
209.01        58.50208
209.47        59.53708
209.93        55.88714
210.39        51.37402
210.85        49.03036
211.31         50.7394
211.77        57.69762
212.23        74.50258
212.69         117.899
213.14        195.8222
213.60        201.3049
214.06        153.5226
214.52        118.2093
214.98        100.2011
215.44        89.99728
215.90        81.22092
216.36        74.53936
216.81        72.37434
217.27        75.71341
217.73        86.54031
218.19        102.4823
218.65        107.1922
219.11        95.64584
219.57        79.11579
220.02        67.77973
220.48        66.36729
220.94        73.45522
221.40         89.0267
221.86        112.1927
222.32        126.9189
222.77        119.6396
223.23        101.5689
223.69        83.66505
224.15        71.72768
224.61        64.80543
225.06        60.02468
225.52        57.25663
225.98        56.19145
226.44        56.34603
226.90        57.77571
227.36        59.13403
227.81        58.14999
228.27        54.88921
228.73        50.23683
229.19        46.25899
229.65        45.32255
230.10        47.35996
230.56        51.42617
231.02        55.59235
231.48        56.78454
231.93        54.53214
232.39        50.51478
232.85        46.40063
233.31        44.30976
233.77        44.51795
234.22        46.21204
234.68        48.68018
235.14        50.97769
235.60        52.74094
236.05        54.42359
236.51        55.81711
236.97        56.44472
237.43        56.20308
237.88        55.03345
238.34        53.73245
238.80        54.08014
239.26        56.79166
239.71        62.44557
240.17        70.17401
240.63        76.87817
241.08        80.41836
241.54        80.16034
242.00        78.72385
242.46        82.33398
242.91        95.57407
243.37        121.1455
243.83        160.9901
244.28        199.9324
244.74        211.8458
245.20        193.1751
245.66        163.9913
246.11        145.3268
246.57        139.1416
247.03        139.4942
247.48         139.632
247.94        130.4377
248.40         115.026
248.85        100.2605
249.31         89.8985
249.77        84.45486
250.22        82.54051
250.68        82.71421
251.14        84.35591
251.59        85.71286
252.05        85.98553
252.51         86.5266
252.96        86.18735
253.42        84.45831
253.88        81.67492
254.33        77.70359
254.79        75.68746
255.25        78.09534
255.70        84.16042
256.16        92.63373
256.62        99.05354
257.07        97.09769
257.53        89.20123
257.99         79.7937
258.44        72.13441
258.90        68.95251
259.35         68.7823
259.81        70.35629
260.27        72.01505
260.72        71.87729
261.18        70.13516
261.63        67.39804
262.09        64.81867
262.55        62.98831
263.00         61.8038
263.46        61.09031
263.91         60.2725
264.37        59.01622
264.83        57.29469
265.28        55.32327
265.74        53.61058
266.19        52.43483
266.65        51.88169
267.11        51.68953
267.56        51.62257
268.02        51.33281
268.47        50.70536
268.93         49.8762
269.38        48.87743
269.84        47.82374
270.30        46.74829
270.75        45.60551
271.21        44.49966
271.66        43.52904
272.12        42.71328
272.57        42.01054
273.03        41.32043
273.48        40.46144
273.94        39.46032
274.39        38.35269
274.85        37.31008
275.31        36.42124
275.76        35.68405
276.22        35.10054
276.67        34.57934
277.13        34.08521
277.58        33.55455
278.04        33.03127
278.49        32.49504
278.95        32.03629
279.40        31.60893
279.86         31.2438
280.31        30.84645
280.77        30.39177
281.22        29.84494
281.68        29.29736
282.13        28.77131
282.59        28.38076
283.04        28.10763
283.50        27.92995
283.95        27.81642
284.41        27.73395
284.86        27.65841
285.32        27.62274
285.77        27.57606
286.22         27.5061
286.68        27.41682
287.13        27.27824
287.59        27.15547
288.04        27.10674
288.50        27.15869
288.95        27.25911
289.41        27.35921
289.86        27.31868
290.32        27.16301
290.77        26.94222
291.22        26.76389
291.68        26.76748
292.13        26.98818
292.59        27.41338
293.04        28.01747
293.50        28.77508
293.95        29.65248
294.40        30.65226
294.86        31.75606
295.31         32.9229
295.77        34.14384
296.22        35.40559
296.68        36.70174
297.13        38.01625
297.58        39.36225
298.04        40.74736
298.49        42.20665
298.95        43.81295
299.40        45.55766
299.85        47.41734
300.31        49.32607
300.76        51.16125
301.21        52.90552
301.67        54.61079
302.12        56.30762
302.58        58.12789
303.03        60.05733
303.48        62.09286
303.94        64.20586
304.39        66.28893
304.84        68.35129
305.30        70.42781
305.75        72.53273
306.20        74.77397
306.66        77.16428
307.11         79.6171
307.57        82.03132
308.02        84.14902
308.47        85.95708
308.93        87.53142
309.38        89.02119
309.83        90.78306
310.29        92.88123
310.74        95.19363
311.19        97.46273
311.65        99.23382
312.10        100.3755
312.55        101.0325
313.00        101.4929
313.46        102.2084
313.91        103.2779
314.36        104.6065
314.82         105.994
315.27        107.1294
315.72        107.8967
316.18        108.4179
316.63        108.8225
317.08        109.3622
317.53        110.1019
317.99        110.9463
318.44        111.7692
318.89         112.341
319.35        112.6045
319.80        112.6464
320.25        112.6167
320.70         112.752
321.16        113.1126
321.61        113.6719
322.06        114.2879
322.51         114.735
322.97        114.9379
323.42        114.9693
323.87        114.9988
324.32        115.3238
324.78        115.9681
325.23        116.9251
325.68        117.8701
326.13         118.282
326.59        118.0416
327.04        117.3348
327.49        116.5688
327.94        116.4228
328.39        117.0549
328.85        118.2302
329.30        119.6595
329.75        120.5359
330.20        120.6074
330.66        120.0761
331.11        119.3704
331.56        119.0947
332.01        119.4363
332.46        120.1878
332.92        121.0406
333.37         121.654
333.82        121.8315
334.27        121.7525
334.72        121.5659
335.17         121.488
335.63        121.6016
336.08        121.8922
336.53        122.3638
336.98        123.0836
337.43         124.028
337.88        125.1499
338.34         126.302
338.79        127.3603
339.24        128.1882
339.69        128.8078
340.14        129.1691
340.59         129.228
341.05        129.0566
341.50        128.6899
341.95        128.3537
342.40        128.3853
342.85        128.8623
343.30        129.6976
343.75        130.7072
344.20         131.566
344.66        132.1579
345.11        132.5479
345.56        132.7889
346.01        132.9818
346.46        133.1803
346.91        133.3645
347.36        133.5223
347.81        133.6584
348.26        133.7655
348.72        133.8241
349.17        133.9052
349.62        134.1521
350.07        134.5639
350.52        135.1226
350.97        135.5267
351.42        135.2989
351.87         134.395
352.32        132.9881
352.77        131.5996
353.22        130.9918
353.67        131.2963
354.13        132.2775
354.58        133.4149
355.03        133.7888
355.48        133.1584
355.93        131.7992
356.38        130.2444
356.83        129.2971
357.28        129.1211
357.73        129.4337
358.18        129.7815
358.63        129.4496
359.08        128.2751
359.53         126.545
359.98         124.653
360.43        123.1483
360.88        122.1698
361.33        121.5394
361.78        121.0421
362.23        120.3525
362.68        119.3872
363.13        118.2758
363.58        117.1529
364.03        116.2018
364.48        115.4558
364.93        114.8183
365.38        114.1973
365.83        113.4719
366.28        112.6097
366.73        111.6683
367.18        110.6798
367.63        109.6823
368.08        108.6994
368.53         107.722
368.98        106.7838
369.43        105.9351
369.88        105.1825
370.33        104.5187
370.78        103.8914
371.23        103.2155
371.68        102.4689
372.13        101.6638
372.58         100.862
373.03        100.1619
373.48         99.5743
373.93        99.06161
374.38        98.52478
374.83        97.81812
375.28        96.91563
375.72        95.84515
376.17        94.78306
376.62        93.87457
377.07        93.16864
377.52        92.65051
377.97        92.20428
378.42         91.6554
378.87        90.97536
379.32        90.19463
379.77        89.51888
380.22         89.2438
380.67        89.38414
381.11        89.86848
381.56        90.27564
382.01        90.00107
382.46        88.95709
382.91        87.41006
383.36        85.85776
383.81          84.984
384.26        84.89766
384.71        85.35641
385.15        86.03853
385.60        86.38297
386.05        86.21272
386.50        85.70646
386.95        84.98869
387.40        84.25431
387.85        83.60249
388.29        82.92488
388.74        82.37123
389.19        81.94969
389.64        81.64375
390.09        81.43414
390.54        81.26736
390.98        81.02244
391.43         80.7201
391.88        80.39434
392.33        80.04438
392.78        79.67152
393.23        79.28922
393.67        78.85082
394.12         78.5097
394.57        78.34226
395.02        78.34518
395.47        78.46233
395.91        78.56781
396.36        78.41982
396.81        78.00905
397.26        77.43387
397.71        76.82123
398.15        76.38289
398.60        76.25703
399.05        76.12189
399.50        75.98026
399.95         76.2952
400.39        76.86263
400.84        76.55869
401.29        75.52046
401.74        75.10842
402.18        75.32211
402.63        74.99036
403.08        74.23282
403.53        73.95275
403.97         74.1799
404.42        74.51759
404.87        74.77198
405.32        74.76283
405.76        74.42546
406.21        73.86199
406.66        73.24933
407.11        72.89456
407.55        72.89274
408.00        73.05426
408.45        73.28076
408.90        73.52731
409.34        73.62952
409.79        73.29858
410.24          72.693
410.68        72.33038
411.13        72.28036
411.58        72.27875
412.03        72.25249
412.47         72.1987
412.92        72.07456
413.37        71.92191
413.81        71.79237
414.26        71.82767
414.71        72.01829
415.15         72.3441
415.60        72.69401
416.05        72.95643
416.49        73.08993
416.94        73.11504
417.39        73.07667
417.83        73.03349
418.28        73.01709
418.73        73.00945
419.17        73.02568
419.62        73.09334
420.07        73.20006
420.51        73.31538
420.96        73.43717
421.41        73.47025
421.85        73.37795
422.30        73.34376
422.74        73.29303
423.19        73.05533
423.64        72.69144
424.08        72.61246
424.53        72.83607
424.98        73.04117
425.42         73.2041
425.87        73.65076
426.31        74.21806
426.76        74.11752
427.21        73.50008
427.65           73.38
428.10         73.7345
428.54        73.85912
428.99        73.80065
429.44        73.66508
429.88        73.61969
430.33        74.31878
430.77        75.37609
431.22        75.76833
431.66        75.43966
432.11        74.88898
432.56        74.37753
433.00        74.41225
433.45        75.14996
433.89         75.7208
434.34        75.45729
434.78        76.85763
435.23          76.305
435.67        73.71393
436.12        74.39117
436.57        74.51521
437.01        75.56103
437.46        75.95261
437.90        75.66681
438.35        75.09157
438.79         75.1823
439.24         75.2689
439.68        75.56285
440.13        76.30497
440.57        77.26248
441.02        77.24474
441.46        76.43423
441.91        76.75851
442.35        77.83627
442.80        77.64758
443.24        76.43026
443.69         76.3636
444.13        77.37016
444.58        77.83713
445.02        77.70326
445.47        77.82288
445.91        78.20336
446.36        78.51097
446.80        78.71463
447.24         78.9171
447.69        79.11527
448.13        79.20516
448.58        79.24619
449.02        79.40933
449.47        79.64986
449.91        79.68816
450.36        79.53979
450.80         79.3342
451.25        79.17362
451.69        79.09909
452.13        79.14716
452.58        79.27926
453.02        79.45254
453.47        79.60661
453.91        79.70649
454.36        79.78773
454.80        79.80711
455.24        79.61086
455.69          79.204
456.13        78.74856
456.58        78.48185
457.02        77.78407
457.46        78.06461
457.91        78.27973
458.35        78.55084
458.79        78.42227
459.24        77.95714
459.68        77.12595
460.13        76.19259
460.57        76.02139
461.01        76.86551
461.46        76.31183
461.90        77.19348
462.34        78.56402
462.79        78.29953
463.23        78.00352
463.68         78.2308
464.12        77.81467
464.56        77.19283
465.01        76.30606
465.45        75.67188
465.89        75.35306
466.34         75.3643
466.78        75.77239
467.22        76.50793
467.67        75.66122
468.11        75.86417
468.55        75.82486
468.99        76.24261
469.44        76.30062
469.88        76.00376
470.32        75.77777
470.77        75.66046
471.21        75.57024
471.65        75.50658
472.10        75.50164
472.54        75.52059
472.98        75.48474
473.42        75.36828
473.87         75.3125
474.31        75.23703
474.75        74.85365
475.20         74.3094
475.64        74.13466
476.08        74.32114
476.52        74.30718
476.97        74.05849
477.41        74.00685
477.85        74.22495
478.29        73.92628
478.74        74.31585
479.18        74.38852
479.62        74.46184
480.06        74.45649
480.50        74.36388
480.95        74.23988
481.39        74.11073
481.83        74.02489
482.27        73.92779
482.72        74.33346
483.16        74.23026
483.60        74.25474
484.04        74.15267
484.48        74.27156
484.93        74.29677
485.37        73.99467
485.81        73.82185
486.25        72.91491
486.69        71.98998
487.14        74.93716
487.58        75.14905
488.02         74.2141
488.46        73.40289
488.90        73.30687
489.34        74.72578
489.79        75.35665
490.23        74.93553
490.67        74.37794
491.11        73.86328
491.55         73.5744
491.99        73.53946
492.43        73.38538
492.88        73.13441
493.32         73.1721
493.76        73.45944
494.20        73.65594
494.64        73.70248
495.08        73.77647
495.52        73.84377
495.96        73.65292
496.41        73.30688
496.85        73.28824
497.29        73.43404
497.73        73.59262
498.17        72.84248
498.61        72.60762
499.05        72.65679
499.49        72.84209
499.93        72.86658
500.37        73.02584
500.82        73.19247
501.26        73.32082
501.70        73.36805
502.14        73.27491
502.58        73.14022
503.02        73.10561
503.46        73.33666
503.90        73.63628
504.34        73.91642
504.78        73.97673
505.22        73.77507
505.66         73.3848
506.10        72.94296
506.54         72.6649
506.98        72.60645
507.42        72.70085
507.86        72.86516
508.30        72.96053
508.74        72.94356
509.18        72.86814
509.62        72.75936
510.06        72.65263
510.50        72.56899
510.94        72.48917
511.38        72.44322
511.82        72.48592
512.26        72.61919
512.70        72.82628
513.14        73.04506
513.58        73.17102
514.02        73.17764
514.46        73.09134
514.90        72.96323
515.34        72.88115
515.78        72.86964
516.22        72.90043
516.66        72.94476
517.10        72.95603
517.54        72.92199
517.98         72.8668
518.42         72.8012
518.86        72.73778
519.30        72.68544
519.74        72.63818
520.18        72.61186
520.62        72.63126
521.06        72.70042
521.50        72.81792
521.93        72.95544
522.37        73.04232
522.81        73.07095
523.25        73.04809
523.69        73.01866
524.13        73.05888
524.57        73.17357
525.01        73.32635
525.45        73.45029
525.89        73.43767
526.32        73.26414
526.76        73.00265
527.20        72.70227
527.64        72.44429
528.08        72.26313
528.52        72.13187
528.96        72.08193
529.40        72.16095
529.83        72.35251
530.27        72.64162
530.71         72.9134
531.15        72.99091
531.59        72.84064
532.03        72.51431
532.46        72.11726
532.90        71.87164
533.34        71.82069
533.78        71.86406
534.22        71.93603
534.66        72.02099
535.09        72.03669
535.53        71.85426
535.97          71.536
536.41        71.36359
536.85         71.3691
537.28        71.40077
537.72         71.4538
538.16        71.57947
538.60        71.76124
539.04        71.98544
539.47        72.17445
539.91        72.25555
540.35        72.20061
540.79        72.03436
541.22        71.83645
541.66        71.76031
542.10        71.82931
542.54        72.00063
542.97         72.1751
543.41           72.23
543.85        72.12749
544.29        71.92284
544.72        71.68411
545.16         71.5545
545.60        71.55363
546.04        71.65263
546.47        71.80444
546.91        71.92248
547.35        71.98501
547.79        72.01723
548.22        72.02885
548.66        72.06989
549.10        72.18105
549.53        72.14835
549.97        72.00945
550.41        71.82381
550.84        71.66669
551.28        71.68841
551.72        71.84467
552.15        71.90968
552.59        71.90508
553.03        71.72956
553.46        72.09505
553.90        71.86451
554.34        71.94833
554.77        71.83018
555.21        71.79588
555.65        71.81316
556.08        71.85698
556.52        72.23258
556.96        72.26436
557.39         72.3397
557.83        72.27202
558.27        71.99225
558.70        71.58508
559.14        71.38199
559.57        71.37321
560.01        71.33146
560.45        71.27605
560.88        71.35304
561.32        71.57592
561.75        71.90739
562.19        72.25136
562.63        72.22429
563.06         71.8935
563.50        71.81178
563.93         71.9164
564.37        71.87037
564.80        71.71671
565.24        71.54373
565.68        71.21184
566.11        71.95913
566.55        71.20608
566.98        71.00737
567.42        70.77071
567.85        70.99982
568.29        71.59583
568.72        71.85048
569.16        71.80269
569.60        71.96543
570.03        72.02135
570.47        72.11573
570.90        72.18148
571.34        71.67695
571.77        72.18459
572.21        72.21017
572.64        72.03308
573.08           72.61
573.51         71.9214
573.95        71.76814
574.38        71.83443
574.82        71.94195
