SpectraSmart Spectrum 2.9.0.0
--------- Device Information -----------
Spectrum Name :  反射率_0
Saving Time :  2024/04/26 22:37:55
Spectro-Module Model Name : SE2030-DUVN
Spectro-Module Serial Number : OS361AC55029948
Wavelength Start : 200
Wavelength End : 1025
Wavelength Unit : Wavelength(nm)
Spectrum Unit : Reflectance(%)
-----------Spectrum Setting ------------
Integration Time : 20ms
Average : 10
Boxcar : 0
Background removal :  enabled
linearity correction :  enabled
SC :  disabled
Intensity correction :  disabled
DWT denoise :  enabled
savitzky-golay :  disabled
FFT :  disabled
Running average :  disabled
Kalman :  disabled
High pass :  disabled
---------------BEGIN--------------------
Wavelength(nm)             Reflectance(%)
200.29               0
200.75        34.40487
201.21        32.19768
201.67        32.06758
202.13        34.42569
202.58        39.17667
203.04        47.36854
203.50        58.02404
203.96        65.63393
204.42        66.06535
204.88         59.0967
205.34        48.43659
205.80        42.88446
206.26        44.67543
206.72        50.19619
207.18        55.97124
207.64        59.12223
208.10         59.5792
208.55        59.21072
209.01        56.94139
209.47        52.39187
209.93        48.04276
210.39        44.81045
210.85        44.03297
211.31        46.93419
211.77          54.814
212.23        73.66001
212.69        120.1868
213.14        192.6315
213.60        179.1662
214.06        120.0344
214.52        83.17318
214.98        68.50178
215.44        64.24276
215.90        63.67838
216.36        65.34547
216.81        67.87611
217.27        71.04371
217.73        77.40525
218.19        84.71407
218.65        82.46629
219.11        70.53999
219.57        56.97198
220.02        49.24096
220.48        51.07321
220.94        61.73851
221.40         82.6017
221.86        112.8334
222.32        132.0569
222.77        122.9707
223.23        99.35487
223.69        75.98939
224.15        60.92648
224.61        52.87053
225.06        48.15461
225.52        45.81088
225.98        44.86494
226.44        44.74573
226.90          45.602
227.36        46.74687
227.81        46.88128
228.27        45.92432
228.73        44.20889
229.19        42.52282
229.65        41.81442
230.10        42.14242
230.56        43.20489
231.02        44.45675
231.48        45.06419
231.93        44.78429
232.39        44.09348
232.85        43.43985
233.31        43.47448
233.77        44.23604
234.22         45.5277
234.68         46.8251
235.14        47.42643
235.60        47.16797
236.05        46.29708
236.51        45.22699
236.97        44.84601
237.43        45.52868
237.88        47.07793
238.34        49.19881
238.80        51.66643
239.26        54.53505
239.71        58.51254
240.17        63.29015
240.63        67.98967
241.08        71.93292
241.54        74.14285
242.00        76.28093
242.46        82.64725
242.91        96.74702
243.37        121.2275
243.83        156.7046
244.28         186.546
244.74        186.4157
245.20        156.5876
245.66        119.8948
246.11         96.3758
246.57        86.84225
247.03         85.7361
247.48        88.01581
247.94        86.04251
248.40        80.09367
248.85        74.08659
249.31        70.70049
249.77        71.18884
250.22        75.25191
250.68         82.2902
251.14        91.33407
251.59        97.44726
252.05        97.33138
252.51        93.60114
252.96        87.54443
253.42        81.03964
253.88        74.90639
254.33        68.76736
254.79        65.45629
255.25        67.01958
255.70        72.69231
256.16        81.41592
256.62        89.01855
257.07         89.2728
257.53        83.86763
257.99        76.60412
258.44        70.67115
258.90        68.94439
259.35        70.05642
259.81        72.78056
260.27        75.22796
260.72        75.18037
261.18        72.95097
261.63        69.41486
262.09         66.1123
262.55        64.00536
263.00        62.97142
263.46        62.66671
263.91        62.28147
264.37        61.19069
264.83        59.33443
265.28        57.04565
265.74        54.99466
266.19        53.64884
266.65        53.11651
267.11        53.06305
267.56        53.12433
268.02        52.75849
268.47        51.82142
268.93        50.53456
269.38        49.08686
269.84        47.81998
270.30         46.8165
270.75        45.96091
271.21        45.22339
271.66         44.4985
272.12        43.75906
272.57        43.02234
273.03        42.28859
273.48        41.53646
273.94        40.80535
274.39        40.03288
274.85        39.29062
275.31        38.53546
275.76        37.74749
276.22        37.00516
276.67        36.24715
277.13        35.48347
277.58        34.67727
278.04        33.85666
278.49         33.0794
278.95        32.55008
279.40        32.22471
279.86        32.10512
280.31        31.94276
280.77        31.49397
281.22         30.7057
281.68        29.74791
282.13        28.83236
282.59        28.33688
283.04        28.27627
283.50        28.54582
283.95        28.91827
284.41        29.04105
284.86        28.83427
285.32        28.45865
285.77        28.07799
286.22        27.98539
286.68        28.22985
287.13        28.65118
287.59        29.15094
288.04        29.53943
288.50        29.77162
288.95        29.87707
289.41        29.87601
289.86        29.72094
290.32        29.48176
290.77         29.1822
291.22         28.9445
291.68        28.93279
292.13        29.18889
292.59        29.71264
293.04        30.46826
293.50        31.40283
293.95        32.47246
294.40        33.67959
294.86        35.01123
295.31        36.43884
295.77        37.94829
296.22        39.50831
296.68        41.09557
297.13        42.66705
297.58        44.23859
298.04        45.84307
298.49        47.51866
298.95        49.34631
299.40         51.3207
299.85        53.40103
300.31        55.57398
300.76        57.79174
301.21        60.03328
301.67        62.32572
302.12        64.55315
302.58        66.63869
303.03        68.53535
303.48        70.30904
303.94        72.12579
304.39        74.16206
304.84        76.47401
305.30        78.99687
305.75        81.53914
306.20        83.90427
306.66         86.0499
307.11        87.99899
307.57        89.82881
308.02        91.53613
308.47        93.17297
308.93        94.72886
309.38        96.24311
309.83        97.91397
310.29         99.7674
310.74        101.7495
311.19        103.6606
311.65        105.1323
312.10        106.0656
312.55        106.5667
313.00        106.9189
313.46        107.5721
313.91        108.6036
314.36        109.9126
314.82        111.2532
315.27        112.2389
315.72        112.7467
316.18        112.9381
316.63        112.9862
317.08        113.2122
317.53        113.7087
317.99        114.3617
318.44        115.0724
318.89        115.6514
319.35        116.0313
319.80        116.2785
320.25        116.4561
320.70        116.6607
321.16        116.9231
321.61        117.2602
322.06        117.6051
322.51        117.8654
322.97        118.0101
323.42         118.072
323.87        118.1995
324.32        118.6562
324.78        119.4371
325.23        120.5419
325.68        121.6049
326.13        122.0296
326.59        121.6861
327.04        120.7922
327.49        119.7962
327.94        119.4447
328.39        119.9244
328.85        120.9829
329.30        122.3754
329.75        123.3603
330.20        123.6833
330.66        123.5207
331.11        123.1886
331.56        123.1089
332.01        123.4264
332.46        123.9775
332.92         124.552
333.37        124.9994
333.82         125.186
334.27        125.2406
334.72         125.262
335.17        125.3764
335.63        125.6314
336.08        126.0501
336.53        126.6312
336.98        127.4308
337.43        128.4257
337.88        129.5514
338.34        130.6936
338.79        131.8005
339.24         132.743
339.69        133.5258
340.14        134.0284
340.59        134.0878
341.05         133.763
341.50        133.1427
341.95          132.54
342.40        132.4241
342.85        132.9044
343.30        133.8439
343.75        135.0221
344.20        136.0514
344.66        136.7826
345.11        137.3014
345.56        137.6218
346.01        137.7815
346.46        137.8404
346.91        137.8036
347.36        137.7497
347.81         137.831
348.26        138.0658
348.72        138.3811
349.17          138.77
349.62        139.2482
350.07        139.7734
350.52         140.369
350.97        140.7405
351.42        140.4254
351.87        139.4015
352.32        137.8369
352.77        136.3143
353.22         135.691
353.67        136.1111
354.13        137.3182
354.58        138.7122
355.03        139.2261
355.48        138.5859
355.93        137.1168
356.38        135.4329
356.83        134.4645
357.28        134.4026
357.73        134.9101
358.18        135.4897
358.63        135.3544
359.08        134.3079
359.53        132.6623
359.98        130.7914
360.43        129.2129
360.88        128.0745
361.33        127.2085
361.78        126.4737
362.23        125.6666
362.68        124.7303
363.13        123.7645
363.58        122.8226
364.03        121.9545
364.48        121.1631
364.93        120.3919
365.38        119.6183
365.83        118.8367
366.28        118.0418
366.73        117.2455
367.18        116.4251
367.63        115.5346
368.08        114.5767
368.53        113.5792
368.98        112.5985
369.43        111.7182
369.88        110.9598
370.33        110.2969
370.78         109.696
371.23        109.1085
371.68        108.5046
372.13         107.876
372.58        107.2184
373.03        106.5253
373.48        105.7865
373.93        105.0011
374.38        104.1351
374.83        103.1474
375.28        102.0604
375.72         100.896
376.17        99.81696
376.62        98.93426
377.07        98.28668
377.52        97.86275
377.97        97.57378
378.42        97.28426
378.87        96.94358
379.32         96.5334
379.77        96.17159
380.22        96.03929
380.67        96.13066
381.11         96.4131
381.56        96.52225
382.01        95.97147
382.46        94.73232
382.91        93.05901
383.36        91.44368
383.81        90.55082
384.26        90.47657
384.71        90.98566
385.15        91.74816
385.60        92.17918
386.05        92.08826
386.50        91.64799
386.95        90.96403
387.40        90.21353
387.85        89.49493
388.29        88.70259
388.74         88.0331
389.19        87.53468
389.64        87.21004
390.09        87.05737
390.54        86.96796
390.98        86.72509
391.43        86.32162
391.88        85.79761
392.33        85.29556
392.78        84.93429
393.23        84.71729
393.67        84.79796
394.12        85.05495
394.57        84.56809
395.02        83.57055
395.47        83.44859
395.91        84.09879
396.36        84.11754
396.81        83.46964
397.26        82.96751
397.71        82.68839
398.15        82.38251
398.60        82.16004
399.05        81.95808
399.50         81.7873
399.95        81.79391
400.39        81.92224
400.84        81.80237
401.29         81.4326
401.74        81.12641
402.18        80.89454
402.63        80.44675
403.08        79.91423
403.53        79.64656
403.97        79.66267
404.42        79.82326
404.87        80.00647
405.32         79.9885
405.76        79.70716
406.21        79.42786
406.66        79.17477
407.11        78.68831
407.55         78.2103
408.00        78.33282
408.45         78.9702
408.90        79.58051
409.34        79.82286
409.79        79.24941
410.24        78.17323
410.68        77.65064
411.13        77.79001
411.58        77.99213
412.03        78.08532
412.47        78.06919
412.92        77.86563
413.37        77.52168
413.81        77.16969
414.26        77.07672
414.71        77.25505
415.15        77.64967
415.60        78.09777
416.05        78.40269
416.49        78.49277
416.94        78.41618
417.39         78.2486
417.83        78.08793
418.28        77.98296
418.73          77.911
419.17        77.86819
419.62         77.8529
420.07        77.84367
420.51        77.81709
420.96        77.82211
421.41        77.79588
421.85        77.69579
422.30         77.8047
422.74        77.94636
423.19        77.54144
423.64        76.75888
424.08        76.66553
424.53         77.2348
424.98        77.52166
425.42        77.47011
425.87        77.73071
426.31        78.20182
426.76        78.10328
427.21        77.55388
427.65        77.38311
428.10        77.56799
428.54        77.58365
428.99           77.48
429.44        77.26134
429.88        77.12723
430.33        77.78728
430.77        78.87196
431.22        79.45147
431.66        79.37666
432.11        78.83295
432.56        78.11575
433.00        77.96025
433.45        78.49475
433.89        79.05466
434.34        79.05462
434.78        79.77629
435.23        78.95715
435.67        77.25383
436.12        78.29828
436.57        78.52109
437.01        78.91283
437.46        79.14411
437.90        79.25941
438.35        78.36311
438.79        78.58195
439.24        78.45967
439.68        78.57229
440.13        79.03923
440.57        79.73609
441.02         79.7448
441.46        79.19279
441.91        79.70442
442.35        80.83497
442.80        80.68842
443.24        79.48101
443.69        79.29469
444.13        80.09182
444.58        80.38517
445.02          80.123
445.47        80.16299
445.91        80.55176
446.36        80.85689
446.80        81.00606
447.24        81.74298
447.69        81.86289
448.13        82.00108
448.58        81.87016
449.02        81.72688
449.47        81.63538
449.91        81.50395
450.36        81.40218
450.80        81.39268
451.25        81.49225
451.69        81.59771
452.13        81.71004
452.58        81.84499
453.02        81.99257
453.47        82.14296
453.91        82.26449
454.36        82.35429
454.80        82.39824
455.24        82.19731
455.69        81.73499
456.13        81.43474
456.58        81.43788
457.02         80.2054
457.46         79.9314
457.91        80.04192
458.35        80.78035
458.79        80.80479
459.24        80.11534
459.68        79.30612
460.13        78.65576
460.57        78.42972
461.01        78.77488
461.46        79.13954
461.90        79.26534
462.34        80.85349
462.79        80.32239
463.23        80.56523
463.68        80.49416
464.12        80.18471
464.56        79.63847
465.01        78.95554
465.45        78.32121
465.89        78.01517
466.34        77.96634
466.78         78.3203
467.22        79.02814
467.67        77.93694
468.11        78.02579
468.55        78.01888
468.99        78.65004
469.44        78.79047
469.88        78.41672
470.32        78.11105
470.77        77.93791
471.21        77.79638
471.65        77.70113
472.10        77.69509
472.54        77.72164
472.98        77.68783
473.42        77.57107
473.87        77.46432
474.31         77.3352
474.75        77.09921
475.20        76.82274
475.64        76.73831
476.08        76.88565
476.52        76.84299
476.97        76.52415
477.41        76.86522
477.85        77.15691
478.29        76.46252
478.74        76.62659
479.18         77.0783
479.62        76.93739
480.06        76.97939
480.50        76.76853
480.95        76.64551
481.39        76.64045
481.83        76.29037
482.27        76.34035
482.72         76.6737
483.16        76.49792
483.60        76.54817
484.04        76.51526
484.48        76.89726
484.93        76.61525
485.37        76.56272
485.81        75.80569
486.25        75.06276
486.69        73.77325
487.14        76.88689
487.58        77.35593
488.02        76.44347
488.46        75.61777
488.90        75.84271
489.34        76.97225
489.79        77.51019
490.23        76.92494
490.67        76.09904
491.11        75.32574
491.55        75.21525
491.99        75.69559
492.43        75.78374
492.88        75.44191
493.32         75.3833
493.76        75.61156
494.20         75.7522
494.64        75.78056
495.08        75.78379
495.52        75.76115
495.96        75.76448
496.41        75.77655
496.85        75.69453
497.29        75.45914
497.73        75.51616
498.17        74.94927
498.61        75.03043
499.05        75.37385
499.49        75.43806
499.93        75.00095
500.37        75.05262
500.82        75.46499
501.26        75.56224
501.70        75.34766
502.14        75.31382
502.58        75.48082
503.02        75.57652
503.46         75.5974
503.90        75.67809
504.34        75.76817
504.78        75.74839
505.22         75.6116
505.66        75.34533
506.10        75.04777
506.54         74.9882
506.98        75.14047
507.42        75.20214
507.86        75.14617
508.30        75.11488
508.74        75.18494
509.18         75.1543
509.62        75.07084
510.06        75.04359
510.50        75.08346
510.94        75.14851
511.38        75.21976
511.82        75.27094
512.26        75.29395
512.70        75.30935
513.14        75.31272
513.58        75.29278
514.02        75.25514
514.46         75.1995
514.90        75.16678
515.34        75.22482
515.78        75.37492
516.22        75.58514
516.66        75.78156
517.10        75.84525
517.54        75.75007
517.98        75.54261
518.42        75.27792
518.86        75.03604
519.30        74.85471
519.74        74.74326
520.18        74.71286
520.62        74.71487
521.06        74.77096
521.50        75.01601
521.93        75.37383
522.37        75.56387
522.81        75.55322
523.25        75.45316
523.69        75.32455
524.13        75.23482
524.57         75.2077
525.01        75.21146
525.45        75.22219
525.89        75.20169
526.32        75.12928
526.76        75.04928
527.20        74.94147
527.64         74.7764
528.08         74.5654
528.52        74.32256
528.96        74.12137
529.40         74.0778
529.83        74.20243
530.27        74.45799
530.71        74.74645
531.15        74.91805
531.59        74.93118
532.03        74.82674
532.46        74.64672
532.90        74.51266
533.34        74.44803
533.78        74.38022
534.22        74.30518
534.66        74.31013
535.09        74.33621
535.53        74.21782
535.97        73.98312
536.41        73.86578
536.85        73.88244
537.28        73.89959
537.72        73.92204
538.16        74.01627
538.60        74.17145
539.04        74.36237
539.47        74.52051
539.91        74.59087
540.35        74.54652
540.79        74.41375
541.22        74.24489
541.66        74.14878
542.10        74.14376
542.54        74.20049
542.97        74.26884
543.41        74.30383
543.85        74.27953
544.29        74.22487
544.72        74.14407
545.16        74.08595
545.60        74.04736
546.04        74.02186
546.47        74.02125
546.91        74.05843
547.35        74.12646
547.79        74.22529
548.22        74.31895
548.66        74.33096
549.10        74.33148
549.53        74.30318
549.97         74.2699
550.41        74.10429
550.84        73.89061
551.28        73.86213
551.72        73.96183
552.15        74.04176
552.59        74.15047
553.03        73.68064
553.46        74.13477
553.90        74.08322
554.34        74.00739
554.77        74.16999
555.21         74.0891
555.65        74.19793
556.08        74.30715
556.52        74.37446
556.96         74.3693
557.39        74.42286
557.83        74.49242
558.27        74.24905
558.70        73.78174
559.14        73.48978
559.57        73.57899
560.01         73.5017
560.45        73.38095
560.88        73.45422
561.32        73.73288
561.75        74.21848
562.19        74.72836
562.63        74.56219
563.06        73.87386
563.50        73.70602
563.93        73.99564
564.37        74.02278
564.80        73.82126
565.24        73.69645
565.68        73.47424
566.11        74.28547
566.55        73.45593
566.98        73.15718
567.42        72.81745
567.85        72.97475
568.29        73.54346
568.72        73.86661
569.16        73.97112
569.60        74.03917
570.03        74.08145
570.47        74.14854
570.90        74.31704
571.34        73.50787
571.77        73.74632
572.21        74.16831
572.64        74.09043
573.08        74.50352
573.51        73.80607
573.95        73.63301
574.38        73.84187
574.82        73.75526
