SpectraSmart Spectrum 2.9.0.0
--------- Device Information -----------
Spectrum Name :  反射率_0
Saving Time :  2024/04/26 22:31:25
Spectro-Module Model Name : SE2030-DUVN
Spectro-Module Serial Number : OS361AC55029948
Wavelength Start : 200
Wavelength End : 1025
Wavelength Unit : Wavelength(nm)
Spectrum Unit : Reflectance(%)
-----------Spectrum Setting ------------
Integration Time : 20ms
Average : 10
Boxcar : 0
Background removal :  enabled
linearity correction :  enabled
SC :  disabled
Intensity correction :  disabled
DWT denoise :  enabled
savitzky-golay :  disabled
FFT :  disabled
Running average :  disabled
Kalman :  disabled
High pass :  disabled
---------------BEGIN--------------------
Wavelength(nm)             Reflectance(%)
200.29               0
200.75        52.18137
201.21        48.40568
201.67        46.06005
202.13        44.94083
202.58        44.65697
203.04        45.79693
203.50        48.16027
203.96        50.23841
204.42        51.07147
204.88        50.51859
205.34        49.48486
205.80        50.26371
206.26        52.85138
206.72         55.5367
207.18         57.4449
207.64        58.02692
208.10          57.336
208.55        56.27676
209.01        53.21633
209.47        47.02242
209.93        40.74944
210.39        36.55835
210.85        35.44216
211.31        37.97451
211.77        45.18757
212.23        62.35422
212.69        105.8816
213.14        179.8405
213.60        178.3234
214.06        127.5286
214.52        91.99024
214.98        74.51044
215.44        65.04383
215.90        57.23943
216.36        51.69713
216.81        50.61903
217.27        54.95773
217.73        66.94054
218.19        83.44238
218.65        86.16206
219.11        70.82912
219.57        50.83328
220.02         37.6423
220.48        35.84327
220.94        43.90284
221.40        62.09345
221.86        89.76671
222.32        108.7519
222.77        102.8105
223.23        83.75663
223.69        64.40041
224.15        51.98355
224.61        45.46112
225.06         41.4627
225.52        39.33909
225.98        38.45875
226.44        38.38893
226.90        39.41611
227.36        40.55157
227.81        40.06549
228.27        37.94654
228.73        34.68667
229.19        31.96387
229.65        31.75628
230.10        34.02742
230.56        38.07771
231.02        42.00365
231.48        42.77663
231.93        40.04037
232.39        35.37735
232.85        30.89674
233.31        29.27913
233.77        30.76847
234.22        34.40521
234.68        38.67939
235.14        41.32801
235.60        41.65815
236.05        40.30691
236.51        38.10683
236.97        36.81423
237.43        37.20454
237.88        38.77597
238.34        40.91228
238.80        42.86173
239.26        44.42958
239.71        46.32529
240.17        48.57864
240.63        51.31185
241.08        54.62762
241.54         57.8067
242.00        61.66832
242.46        68.61575
242.91        81.01018
243.37        100.8418
243.83        128.9123
244.28        153.5299
244.74        156.2452
245.20        136.2379
245.66        109.2036
246.11        89.40359
246.57        78.03706
247.03        71.22302
247.48        67.51363
247.94        65.33297
248.40        64.34753
248.85        64.69154
249.31        65.88081
249.77        67.07953
250.22        68.12254
250.68        68.73961
251.14        69.07335
251.59        69.63915
252.05        70.46973
252.51        71.48235
252.96        70.60458
253.42         66.3859
253.88        59.68125
254.33        51.82528
254.79        45.99667
255.25        44.39338
255.70        46.50654
256.16          51.144
256.62         55.5684
257.07        55.80165
257.53        52.70573
257.99        48.54527
258.44        45.14787
258.90        44.26272
259.35        45.01607
259.81        46.66657
260.27        48.03574
260.72        47.76298
261.18        46.07639
261.63         43.5546
262.09         41.1901
262.55        39.59685
263.00        38.71115
263.46        38.31263
263.91        37.91764
264.37        37.13939
264.83        35.94193
265.28        34.51212
265.74        33.25934
266.19        32.45671
266.65        32.16348
267.11        32.17103
267.56        32.24033
268.02        32.00113
268.47        31.36946
268.93        30.49433
269.38        29.52063
269.84        28.70479
270.30        28.10592
270.75         27.6342
271.21        27.25965
271.66        26.89965
272.12        26.52411
272.57        26.14859
273.03        25.74897
273.48         25.2795
273.94        24.76801
274.39        24.19278
274.85        23.63871
275.31        23.12707
275.76         22.6534
276.22        22.24338
276.67        21.85199
277.13         21.4631
277.58        21.04854
278.04        20.63844
278.49        20.23856
278.95        19.94038
279.40        19.71396
279.86         19.5725
280.31        19.42039
280.77        19.19297
281.22        18.85679
281.68         18.4725
282.13        18.09443
282.59        17.84841
283.04        17.73051
283.50        17.71274
283.95         17.7157
284.41        17.61495
284.86        17.39595
285.32        17.13289
285.77        16.89657
286.22        16.82326
286.68        16.93236
287.13        17.14134
287.59        17.40826
288.04        17.64008
288.50        17.81171
288.95        17.92594
289.41        17.97253
289.86        17.89207
290.32        17.72161
290.77        17.48647
291.22        17.28174
291.68         17.2387
292.13        17.39028
292.59        17.72811
293.04        18.21325
293.50        18.78675
293.95        19.41918
294.40        20.12894
294.86        20.92609
295.31        21.82147
295.77        22.81262
296.22        23.86741
296.68        24.96884
297.13        26.08809
297.58        27.22859
298.04        28.41457
298.49        29.64599
298.95        30.93353
299.40        32.27554
299.85        33.66651
300.31        35.13939
300.76        36.73492
301.21        38.44756
301.67        40.26206
302.12        42.07426
302.58        43.79322
303.03        45.36568
303.48        46.84752
303.94        48.32073
304.39        49.86369
304.84        51.52261
305.30        53.28122
305.75        55.07478
306.20        56.87417
306.66        58.66691
307.11          60.428
307.57         62.1582
308.02        63.77567
308.47        65.28445
308.93          66.696
309.38        68.03277
309.83        69.43219
310.29        70.92001
310.74        72.45508
311.19        73.92463
311.65         75.1166
312.10        75.96967
312.55        76.54868
313.00        77.02439
313.46        77.66836
313.91        78.52882
314.36        79.55394
314.82        80.59621
315.27        81.42349
315.72        81.95547
316.18        82.28542
316.63        82.51543
317.08        82.84746
317.53         83.3363
317.99        83.90701
318.44        84.48721
318.89        84.93559
319.35        85.21009
319.80        85.36773
320.25        85.46915
320.70        85.60702
321.16        85.81467
321.61        86.10152
322.06        86.42734
322.51        86.73621
322.97        86.99541
323.42        87.21259
323.87        87.46457
324.32        87.89488
324.78        88.48849
325.23        89.26601
325.68        89.96415
326.13        90.16004
326.59        89.77918
327.04        88.98362
327.49        88.16084
327.94          87.947
328.39        88.48917
328.85         89.5808
329.30        90.94783
329.75         91.8658
330.20        92.09308
330.66        91.80775
331.11        91.33471
331.56        91.14208
332.01         91.3847
332.46        91.89198
332.92        92.47311
333.37        92.95384
333.82        93.20356
334.27        93.34531
334.72        93.42902
335.17        93.50384
335.63        93.60814
336.08        93.77073
336.53        94.05642
336.98        94.62279
337.43        95.48003
337.88        96.54703
338.34          97.682
338.79         98.7401
339.24        99.58807
339.69        100.2634
340.14        100.6817
340.59        100.7359
341.05        100.4849
341.50        99.97797
341.95         99.5053
342.40        99.50829
342.85        100.0799
343.30        101.1031
343.75        102.3079
344.20        103.2238
344.66        103.7064
345.11        103.8745
345.56         103.882
346.01        103.9878
346.46        104.2805
346.91        104.6803
347.36        105.1086
347.81        105.4646
348.26        105.7132
348.72        105.8831
349.17         106.051
349.62        106.3601
350.07        106.8209
350.52        107.3937
350.97        107.8555
351.42         107.859
351.87        107.3622
352.32        106.4921
352.77         105.603
353.22        105.2102
353.67         105.412
354.13        106.0573
354.58        106.8128
355.03        107.0826
355.48        106.7122
355.93          105.88
356.38        104.9465
356.83        104.4541
357.28         104.507
357.73        104.9094
358.18        105.3264
358.63        105.2274
359.08        104.4915
359.53        103.3252
359.98        102.0248
360.43        101.0113
360.88        100.3903
361.33        100.0244
361.78        99.75425
362.23        99.33606
362.68        98.70434
363.13        97.95721
363.58         97.1804
364.03        96.48794
364.48        95.90426
364.93        95.36629
365.38        94.83625
365.83         94.2728
366.28        93.66555
366.73        93.04785
367.18        92.41382
367.63        91.74244
368.08        91.04056
368.53        90.31579
368.98        89.62485
369.43        89.05651
369.88        88.62451
370.33         88.3028
370.78        88.01449
371.23        87.63458
371.68        87.12844
372.13        86.52334
372.58        85.89332
373.03        85.35812
373.48        84.94062
373.93        84.59799
374.38        84.24666
374.83        83.76159
375.28        83.11835
375.72        82.34671
376.17        81.58236
376.62        80.92481
377.07         80.4138
377.52         80.0393
377.97        79.72987
378.42        79.38182
378.87        78.97047
379.32         78.4972
379.77        78.09361
380.22        77.95074
380.67        78.07084
381.11        78.41687
381.56        78.65848
382.01        78.33333
382.46        77.39348
382.91        76.05877
383.36         74.7522
383.81        74.05305
384.26        74.04897
384.71        74.53271
385.15         75.2235
385.60        75.62786
386.05        75.58401
386.50        75.24316
386.95        74.69544
387.40         74.0878
387.85         73.5076
388.29        72.87079
388.74        72.34435
389.19        71.98351
389.64        71.78563
390.09        71.72806
390.54        71.72782
390.98        71.61701
391.43        71.39572
391.88        71.10203
392.33        70.78863
392.78        70.53372
393.23        70.35587
393.67        70.19048
394.12        70.08975
394.57        69.99923
395.02        69.90103
395.47        69.78275
395.91        69.65138
396.36        69.48991
396.81        69.32839
397.26        69.18323
397.71        69.01756
398.15        68.79605
398.60        68.60487
399.05        68.25301
399.50        67.86809
399.95        67.98922
400.39         68.4878
400.84        68.42907
401.29         67.8251
401.74        67.55254
402.18        67.59831
402.63        67.20887
403.08        66.53303
403.53        66.24927
403.97        66.40361
404.42        66.72547
404.87        67.03701
405.32        67.12384
405.76        66.91792
406.21        66.52608
406.66        66.09506
407.11        65.87791
407.55        65.95551
408.00        66.16513
408.45        66.42362
408.90        66.68199
409.34         66.8037
409.79        66.56979
410.24        66.10524
410.68        65.81137
411.13        65.74721
411.58        65.70888
412.03        65.64027
412.47        65.54314
412.92        65.38626
413.37        65.20874
413.81        65.05717
414.26        65.05508
414.71        65.19603
415.15        65.47292
415.60        65.78424
416.05        66.02517
416.49        66.15967
416.94        66.20001
417.39        66.21166
417.83        66.29018
418.28        66.45972
418.73        66.67941
419.17        66.89523
419.62        67.02662
420.07        67.04263
420.51        66.95399
420.96        66.82358
421.41        66.67334
421.85        66.50075
422.30        66.42822
422.74        66.37112
423.19        66.17358
423.64        65.87251
424.08         65.8019
424.53        65.96999
424.98        66.15841
425.42        66.36126
425.87         66.7204
426.31        67.13293
426.76        67.26803
427.21        67.14333
427.65        66.97847
428.10        66.82985
428.54        66.87836
428.99        66.87228
429.44        66.93046
429.88        67.02258
430.33        67.43363
430.77        67.96934
431.22        68.43536
431.66        68.67671
432.11        68.33025
432.56         67.6489
433.00        67.55373
433.45        68.19817
433.89        68.97916
434.34        69.32233
434.78        69.89487
435.23        69.54597
435.67        67.66148
436.12         68.7734
436.57        68.83871
437.01        69.08458
437.46        69.23483
437.90        69.34544
438.35        68.65268
438.79        68.94811
439.24        68.93415
439.68        69.09568
440.13        69.53032
440.57        70.14786
441.02        70.24075
441.46        69.89726
441.91        70.37569
442.35        71.32286
442.80        71.27893
443.24        70.43258
443.69        70.43771
444.13         71.2481
444.58        71.69727
445.02        71.71332
445.47        71.82102
445.91        72.04648
446.36        72.29832
446.80        72.55929
447.24        72.78853
447.69        72.97726
448.13        73.13784
448.58        73.28092
449.02        73.37918
449.47        73.42946
449.91          73.395
450.36        73.30701
450.80        73.16486
451.25        73.05741
451.69        73.05906
452.13         73.1982
452.58        73.43565
453.02        73.69967
453.47        73.88168
453.91        73.93758
454.36        73.90479
454.80        73.78876
455.24        73.56205
455.69        73.24991
456.13        72.94916
456.58        72.75172
457.02        72.35332
457.46         71.9416
457.91        72.30119
458.35        72.94574
458.79        72.94817
459.24        72.25206
459.68        71.35065
460.13        70.59078
460.57        70.29173
461.01        70.59419
461.46        71.08207
461.90        71.51246
462.34        72.71935
462.79        72.52249
463.23        72.69379
463.68        72.56498
464.12        72.18925
464.56        71.60163
465.01        70.81648
465.45        70.05459
465.89        69.87006
466.34        70.13901
466.78        70.50578
467.22        70.91246
467.67        70.23956
468.11        70.42062
468.55         70.4577
468.99        70.83195
469.44        70.90002
469.88         70.6615
470.32        70.47706
470.77        70.39034
471.21        70.33224
471.65         70.3038
472.10        70.33877
472.54        70.38705
472.98        70.35222
473.42        70.21484
473.87        70.09766
474.31        69.96569
474.75         69.6677
475.20        69.30891
475.64         69.2369
476.08         69.4601
476.52        69.50625
476.97        69.31981
477.41        69.51579
477.85        69.81453
478.29        69.32033
478.74        69.59276
479.18         69.5396
479.62        69.63019
480.06        69.60139
480.50        69.45546
480.95        69.42588
481.39        69.50365
481.83        69.29979
482.27        69.30414
482.72        69.52802
483.16        69.23891
483.60         69.2632
484.04        69.34203
484.48        69.69064
484.93        69.84667
485.37        69.50912
485.81        68.60263
486.25        67.68042
486.69        65.81297
487.14        68.83594
487.58        70.17724
488.02        69.73745
488.46        68.56673
488.90         69.2345
489.34        69.92086
489.79        70.70501
490.23        70.24457
490.67        69.76125
491.11        69.29879
491.55        69.03349
491.99        69.01353
492.43        68.89129
492.88        68.68697
493.32        68.70995
493.76        68.92811
494.20        69.09716
494.64        69.17659
495.08        69.23642
495.52        69.26134
495.96        69.22787
496.41        69.15563
496.85        69.07642
497.29        68.92117
497.73        69.04475
498.17        68.58704
498.61        68.55368
499.05        68.66899
499.49        68.87125
499.93        68.85921
500.37        68.94512
500.82        69.04176
501.26        69.00038
501.70        68.85234
502.14         69.0109
502.58        69.11964
503.02        69.26939
503.46        69.34196
503.90        69.47208
504.34        69.61099
504.78        69.61347
505.22        69.46397
505.66        69.23022
506.10        69.00755
506.54        68.82651
506.98        68.69533
507.42        68.90826
507.86         69.1124
508.30        68.87894
508.74        69.15273
509.18        69.10863
509.62        69.07784
510.06        69.05995
510.50        69.07413
510.94        69.08932
511.38        69.10508
511.82        69.15453
512.26        69.23524
512.70        69.34278
513.14        69.44498
513.58        69.48687
514.02        69.45888
514.46        69.37647
514.90        69.28176
515.34        69.24493
515.78        69.27968
516.22        69.35966
516.66        69.44637
517.10        69.47738
517.54        69.43707
517.98        69.35262
518.42        69.24073
518.86        69.12699
519.30        69.02708
519.74        68.93388
520.18        68.87212
520.62        68.87843
521.06        68.95827
521.50        69.10937
521.93        69.28711
522.37        69.39377
522.81        69.41451
523.25        69.36137
523.69        69.29976
524.13        69.33818
524.57        69.48853
525.01        69.70646
525.45         69.8984
525.89        69.91502
526.32          69.722
526.76        69.39952
527.20        69.03374
527.64         68.7627
528.08        68.63035
528.52         68.5954
528.96        68.63651
529.40        68.71807
529.83        68.81441
530.27        68.94347
530.71        69.06342
531.15        69.11282
531.59         69.0814
532.03        68.97614
532.46        68.83499
532.90        68.77366
533.34         68.8012
533.78        68.84682
534.22        68.86977
534.66        68.89061
535.09        68.84622
535.53        68.60451
535.97        68.22747
536.41        67.98924
536.85        67.92457
537.28        67.89613
537.72        67.90711
538.16        68.01242
538.60        68.19631
539.04         68.4416
539.47        68.66254
539.91        68.77249
540.35        68.73817
540.79        68.58459
541.22        68.39464
541.66        68.32444
542.10        68.40269
542.54         68.5936
542.97        68.78956
543.41        68.85265
543.85        68.73803
544.29        68.49715
544.72        68.23552
545.16        68.11718
545.60        68.15917
546.04        68.42823
546.47        68.78946
546.91        68.76657
547.35        68.44153
547.79        68.43434
548.22        68.72812
548.66        68.87184
549.10        68.88602
549.53        68.83231
549.97         68.7525
550.41        68.60381
550.84        68.46587
551.28        68.46607
551.72        68.54467
552.15        68.60557
552.59        68.67219
553.03        68.20737
553.46        68.68758
553.90        68.53262
554.34        68.07788
554.77        68.68166
555.21        68.58955
555.65        68.06535
556.08        68.61773
556.52        68.66972
556.96        68.79981
557.39         68.6879
557.83        68.91266
558.27        68.72373
558.70        68.34721
559.14        68.21262
559.57        68.30112
560.01        68.29617
560.45         68.1963
560.88        68.25562
561.32        68.45898
561.75        68.54488
562.19        68.52707
562.63        68.47598
563.06        68.42627
563.50        68.49109
563.93        68.58424
564.37        68.61862
564.80        68.61456
565.24        68.50471
565.68        68.16077
566.11        68.83282
566.55        68.05801
566.98        67.82787
567.42        67.56606
567.85        67.63734
568.29        67.99247
568.72        68.19219
569.16        68.26388
569.60        68.37849
570.03        68.37301
570.47        68.45663
570.90        68.60109
571.34        68.03647
571.77        68.10782
572.21        68.65453
572.64         68.1748
573.08        69.05244
573.51        68.24288
573.95        67.78995
574.38        67.63456
574.82        67.97622
