SpectraSmart Spectrum 2.9.0.0
--------- Device Information -----------
Spectrum Name :  反射率_0
Saving Time :  2024/04/26 22:42:48
Spectro-Module Model Name : SE2030-DUVN
Spectro-Module Serial Number : OS361AC55029948
Wavelength Start : 200
Wavelength End : 1025
Wavelength Unit : Wavelength(nm)
Spectrum Unit : Reflectance(%)
-----------Spectrum Setting ------------
Integration Time : 20ms
Average : 10
Boxcar : 0
Background removal :  enabled
linearity correction :  enabled
SC :  disabled
Intensity correction :  disabled
DWT denoise :  enabled
savitzky-golay :  disabled
FFT :  disabled
Running average :  disabled
Kalman :  disabled
High pass :  disabled
---------------BEGIN--------------------
Wavelength(nm)             Reflectance(%)
200.29               0
200.75        54.13253
201.21        54.15155
201.67        54.70685
202.13        55.57457
202.58        56.64828
203.04         58.5477
203.50        61.19938
203.96        63.39265
204.42         64.2629
204.88        63.71976
205.34         62.2801
205.80        61.58029
206.26        61.93764
206.72        62.43289
207.18        63.04766
207.64        63.83632
208.10        65.03554
208.55        68.03214
209.01        71.37014
209.47        70.71839
209.93        65.75681
210.39        59.70564
210.85        56.84033
211.31        60.19132
211.77        71.67469
212.23        99.69197
212.69        167.9856
213.14        268.5609
213.60        238.9368
214.06        148.0616
214.52        93.95876
214.98        73.20548
215.44         67.9637
215.90        69.06569
216.36        73.05152
216.81        75.70076
217.27        75.87796
217.73        76.24919
218.19        76.23375
218.65        73.59251
219.11        69.83474
219.57        65.77374
220.02        65.00665
220.48          71.319
220.94        85.21464
221.40        109.2645
221.86         141.713
222.32        158.2827
222.77        141.4391
223.23        109.1406
223.69         79.9725
224.15        63.47191
224.61        56.85294
225.06        54.92383
225.52        55.33857
225.98         55.6876
226.44        55.39881
226.90         55.3108
227.36        55.04683
227.81        53.87995
228.27        52.04322
228.73        49.58635
229.19         47.5825
229.65        47.37145
230.10        48.87061
230.56        51.62521
231.02        54.34263
231.48        54.94168
231.93        53.14498
232.39        50.15914
232.85        47.24281
233.31        46.04485
233.77        46.74475
234.22        48.73253
234.68        51.32846
235.14         53.5965
235.60        55.22351
236.05        56.63643
236.51        57.78028
236.97        58.54171
237.43        58.91455
237.88        58.72542
238.34         58.5636
238.80        59.88806
239.26        63.30804
239.71        69.52747
240.17        77.47949
240.63        83.68695
241.08        85.85852
241.54        83.29744
242.00        79.28503
242.46        81.25652
242.91        94.30559
243.37        121.4665
243.83        164.9646
244.28        207.8416
244.74        221.2189
245.20        201.4186
245.66         169.263
246.11        146.7272
246.57         136.122
247.03        131.1721
247.48        127.1018
247.94        118.3851
248.40        107.2899
248.85         98.1067
249.31        92.35715
249.77        89.33197
250.22        88.03159
250.68        87.37184
251.14          87.629
251.59        89.60047
252.05        93.05767
252.51        97.64725
252.96        99.86392
253.42        97.36262
253.88        91.20808
254.33        82.88598
254.79        77.02803
255.25        77.21465
255.70        82.67651
256.16        91.60403
256.62        99.34238
257.07        99.11408
257.53        92.80943
257.99        84.73192
258.44        78.07082
258.90        75.64536
259.35         76.0759
259.81        78.19571
260.27        80.31326
260.72        80.49831
261.18        78.98192
261.63        76.34589
262.09        73.91782
262.55        72.41678
263.00        71.69751
263.46        71.55133
263.91        71.18291
264.37        70.03431
264.83        68.07929
265.28        65.65174
265.74        63.49906
266.19        62.15083
266.65        61.72609
267.11        61.84139
267.56        62.10013
268.02        61.90337
268.47        61.07311
268.93        59.86012
269.38        58.38643
269.84         56.9085
270.30        55.51567
270.75        54.12085
271.21          52.862
271.66        51.87919
272.12        51.18056
272.57        50.70036
273.03        50.24931
273.48        49.48703
273.94        48.41491
274.39        47.11089
274.85        45.82248
275.31        44.72887
275.76        43.84615
276.22        43.14532
276.67        42.52485
277.13        41.96545
277.58        41.37471
278.04        40.79619
278.49        40.15037
278.95        39.45544
279.40         38.6663
279.86        37.88334
280.31        37.06276
280.77        36.27274
281.22        35.49589
281.68        34.80033
282.13        34.21677
282.59        33.88905
283.04         33.7759
283.50         33.8494
283.95         33.9798
284.41        33.97989
284.86        33.79884
285.32        33.52444
285.77        33.22633
286.22        33.08184
286.68        33.12165
287.13        33.24052
287.59        33.39972
288.04        33.48779
288.50        33.49764
288.95         33.4356
289.41        33.32338
289.86        33.10807
290.32        32.84935
290.77        32.56031
291.22         32.3404
291.68        32.31659
292.13        32.51409
292.59        32.93585
293.04        33.54383
293.50        34.29029
293.95        35.14008
294.40        36.10329
294.86        37.18658
295.31        38.38809
295.77        39.70646
296.22        41.11007
296.68        42.57066
297.13        44.03401
297.58        45.50235
298.04        46.99358
298.49        48.54343
298.95        50.23134
299.40        52.04774
299.85        53.96023
300.31        55.91495
300.76        57.80342
301.21        59.61138
301.67        61.39188
302.12        63.13625
302.58        64.92981
303.03        66.74123
303.48        68.56926
303.94        70.44851
304.39        72.35731
304.84         74.3169
305.30        76.34444
305.75        78.33873
306.20        80.24068
306.66        82.05222
307.11         83.7476
307.57          85.408
308.02        87.04205
308.47        88.68268
308.93        90.32191
309.38        91.91068
309.83        93.50186
310.29        95.09984
310.74        96.68268
311.19        98.17995
311.65        99.44568
312.10        100.4234
312.55        101.1436
313.00        101.7373
313.46        102.4206
313.91        103.2255
314.36        104.1356
314.82         105.026
315.27        105.7086
315.72        106.1232
316.18        106.3613
316.63        106.5392
317.08        106.8887
317.53         107.465
317.99        108.1857
318.44         108.936
318.89        109.4976
319.35        109.8044
319.80        109.9225
320.25        109.9599
320.70        110.0933
321.16        110.3708
321.61        110.7867
322.06        111.2332
322.51        111.5433
322.97        111.6672
323.42        111.6649
323.87        111.7043
324.32        112.0804
324.78        112.8009
325.23         113.838
325.68        114.8481
326.13        115.2739
326.59        114.9846
327.04         114.192
327.49        113.2683
327.94        112.8346
328.39        113.0588
328.85        113.7265
329.30        114.7052
329.75        115.4757
330.20        115.8549
330.66        115.9661
331.11        115.9952
331.56        116.1562
332.01        116.5263
332.46        116.9831
332.92        117.4087
333.37        117.8069
333.82        118.0889
334.27        118.3304
334.72        118.5147
335.17        118.5866
335.63         118.561
336.08        118.5292
336.53        118.6383
336.98        119.1782
337.43        120.1892
337.88        121.5372
338.34          122.99
338.79        124.2804
339.24        125.2124
339.69        125.8569
340.14         126.155
340.59        126.0466
341.05         125.629
341.50        124.9501
341.95        124.3264
342.40        124.2392
342.85        124.7895
343.30        125.8458
343.75        127.1431
344.20        128.2097
344.66        128.8837
345.11        129.2775
345.56        129.4636
346.01        129.5793
346.46        129.7029
346.91        129.7954
347.36           129.9
347.81         130.112
348.26        130.4301
348.72        130.8109
349.17         131.223
349.62        131.6406
350.07        132.0285
350.52        132.4189
350.97        132.6174
351.42        132.3239
351.87        131.5384
352.32        130.3744
352.77        129.2672
353.22        128.8556
353.67        129.2363
354.13        130.2087
354.58        131.3043
355.03        131.6817
355.48        131.1286
355.93         129.909
356.38        128.4983
356.83        127.6171
357.28        127.4204
357.73        127.6452
358.18        127.9523
358.63        127.8064
359.08        127.0603
359.53        125.9276
359.98        124.6081
360.43        123.3649
360.88        122.2892
361.33        121.2964
361.78        120.3644
362.23        119.4819
362.68        118.6423
363.13        117.8715
363.58        117.1546
364.03        116.4406
364.48        115.7016
364.93        114.9277
365.38        114.1073
365.83        113.2442
366.28        112.3515
366.73        111.4369
367.18        110.5218
367.63        109.6333
368.08        108.7814
368.53        107.9705
368.98        107.1965
369.43        106.4434
369.88        105.7058
370.33        104.9854
370.78        104.2879
371.23        103.6314
371.68        103.0164
372.13         102.426
372.58        101.8462
373.03        101.2552
373.48        100.6353
373.93        99.98435
374.38        99.28477
374.83         98.5179
375.28        97.69306
375.72        96.80896
376.17        95.95961
376.62        95.16597
377.07        94.45448
377.52        93.84454
377.97        93.32337
378.42        92.87969
378.87         92.5024
379.32        92.14877
379.77         91.8781
380.22        91.78008
380.67        91.82688
381.11        92.00689
381.56        92.01928
382.01        91.47865
382.46        90.37143
382.91        88.90832
383.36        87.48523
383.81        86.63439
384.26        86.43698
384.71        86.70774
385.15        87.21368
385.60        87.53504
386.05         87.5209
386.50         87.2797
386.95        86.84299
387.40        86.27239
387.85        85.63137
388.29        84.86048
388.74        84.15658
389.19        83.58085
389.64        83.14524
390.09        82.82781
390.54        82.58607
390.98        82.31998
391.43        82.04787
391.88        81.78504
392.33        81.53899
392.78         81.3018
393.23        81.06917
393.67        80.84023
394.12        80.68606
394.57        80.44627
395.02        80.16454
395.47         80.0789
395.91        80.13197
396.36        79.96313
396.81        79.58161
397.26        79.19341
397.71        78.83344
398.15        78.49866
398.60         78.3016
399.05        78.01269
399.50        77.70637
399.95        77.87828
400.39        78.36842
400.84        78.18102
401.29        77.37677
401.74        76.98404
402.18        77.00832
402.63        76.60603
403.08        75.89541
403.53        75.54499
403.97        75.59141
404.42        75.76924
404.87        75.93169
405.32         75.9127
405.76        75.64873
406.21        75.24377
406.66        74.82362
407.11        74.55116
407.55        74.51571
408.00         74.7207
408.45        75.04796
408.90        75.16014
409.34        74.97586
409.79        74.64587
410.24        74.30004
410.68        74.07349
411.13        74.01978
411.58        74.09121
412.03        74.18345
412.47        74.13032
412.92        73.87618
413.37        73.51674
413.81        73.16962
414.26        73.07108
414.71         73.2319
415.15        73.60596
415.60        74.04183
416.05        74.35825
416.49        74.48823
416.94        74.46911
417.39        74.37494
417.83        74.31075
418.28        74.31604
418.73        74.35112
419.17        74.39878
419.62        74.44016
420.07        74.45656
420.51        74.43877
420.96        74.41774
421.41        74.35648
421.85        74.23116
422.30        74.18089
422.74        74.12013
423.19         73.9187
423.64        73.60995
424.08        73.49119
424.53        73.59378
424.98        73.77505
425.42        74.03905
425.87        74.49506
426.31          74.995
426.76          75.134
427.21        74.90981
427.65        74.57395
428.10        74.27083
428.54        74.17478
428.99        74.36877
429.44        74.57552
429.88          74.805
430.33        75.43925
430.77        76.16733
431.22        76.47167
431.66        76.27644
432.11        75.65942
432.56        74.89716
433.00        74.71671
433.45        75.30603
433.89        75.96164
434.34        76.05197
434.78         77.3394
435.23        76.90551
435.67         74.8505
436.12        75.61423
436.57        75.53941
437.01        75.96021
437.46        76.18944
437.90        75.97143
438.35        75.71487
438.79        75.89849
439.24        76.02217
439.68        76.18188
440.13         76.6571
440.57        77.30222
441.02         77.0825
441.46        76.22086
441.91        76.57092
442.35        77.72401
442.80        77.60661
443.24        76.49629
443.69        76.56721
444.13        77.71457
444.58        78.23972
445.02        78.07281
445.47        78.09234
445.91        78.36317
446.36        78.64113
446.80        78.91242
447.24        79.23821
447.69        79.56444
448.13        79.67291
448.58        79.75439
449.02        79.66012
449.47        79.50835
449.91        79.35475
450.36        79.25749
450.80         79.1829
451.25        79.16169
451.69        79.17992
452.13        79.24596
452.58        79.34573
453.02        79.46578
453.47         79.5871
453.91        79.67915
454.36        79.76685
454.80        79.83099
455.24         79.6019
455.69        79.05167
456.13        78.68951
456.58        78.77059
457.02        77.33043
457.46        77.71539
457.91        77.96033
458.35        78.63049
458.79        78.60499
459.24        77.88976
459.68        76.89617
460.13        75.99447
460.57        75.63301
461.01        75.96955
461.46        76.37091
461.90        77.13512
462.34        78.06638
462.79        78.07246
463.23        78.15625
463.68         77.9743
464.12        77.57845
464.56        77.00095
465.01        76.33948
465.45        75.72212
465.89        75.37308
466.34        75.25801
466.78        75.59038
467.22        76.30763
467.67        75.49619
468.11        75.60535
468.55        75.53033
468.99        75.91384
469.44        75.92957
469.88        75.57976
470.32        75.28494
470.77        75.10149
471.21        74.98303
471.65        74.93552
472.10        74.97691
472.54        75.05025
472.98        75.05245
473.42        74.96033
473.87        74.88644
474.31        74.76151
474.75        74.43031
475.20        74.05268
475.64        73.72173
476.08        74.08808
476.52        74.09866
476.97        73.87992
477.41        73.91135
477.85        74.28756
478.29        73.93253
478.74        74.00232
479.18        74.70288
479.62        74.19559
480.06         74.2099
480.50        74.07459
480.95        74.05663
481.39        74.18178
481.83        73.61875
482.27        73.77686
482.72        74.10223
483.16        73.85394
483.60        73.86198
484.04        74.00138
484.48        74.15524
484.93        74.01532
485.37         74.1115
485.81        73.56237
486.25        72.93286
486.69        72.16333
487.14        74.92542
487.58        74.74959
488.02        74.14332
488.46        73.22359
488.90        72.83932
489.34        74.10941
489.79        75.14341
490.23         74.2679
490.67        73.72552
491.11        73.24265
491.55        73.12453
491.99         73.3204
492.43        73.25906
492.88        72.96029
493.32        72.91923
493.76        73.11524
494.20        73.25484
494.64         73.3096
495.08        73.25057
495.52         73.1362
495.96        73.31052
496.41        73.66821
496.85        73.63998
497.29        73.16029
497.73        73.02889
498.17        72.42074
498.61        72.37096
499.05        72.57517
499.49        72.87934
499.93        72.94334
500.37        73.08598
500.82        73.21804
501.26        73.32477
501.70        73.38058
502.14        73.38954
502.58        73.27937
503.02        73.27296
503.46        73.35175
503.90        73.48152
504.34        73.59669
504.78        73.57487
505.22        73.36573
505.66        73.11687
506.10        72.94709
506.54        72.69557
506.98        72.32191
507.42        73.17442
507.86        72.78781
508.30        72.97251
508.74        72.98092
509.18        72.90787
509.62        72.77956
510.06        72.68631
510.50        72.67304
510.94        72.68851
511.38        72.71671
511.82        72.73071
512.26        72.72273
512.70        72.71046
513.14        72.70553
513.58        72.72205
514.02        72.76495
514.46        72.82365
514.90        72.89718
515.34        72.98833
515.78        73.08685
516.22        73.18017
516.66        73.24827
517.10        73.26071
517.54        73.21265
517.98        73.12199
518.42        72.99411
518.86        72.83842
519.30        72.67141
519.74        72.49848
520.18        72.36594
520.62        72.34041
521.06        72.43177
521.50        72.62475
521.93        72.85456
522.37        72.98894
522.81        73.00314
523.25        72.92165
523.69        72.81431
524.13        72.79789
524.57        72.88955
525.01        73.03891
525.45        73.17202
525.89        73.17123
526.32        73.00628
526.76        72.75416
527.20        72.46067
527.64        72.19901
528.08        72.00448
528.52        71.85574
528.96        71.78805
529.40          71.855
529.83        72.04453
530.27        72.34128
530.71        72.64062
531.15        72.77696
531.59        72.71299
532.03        72.50305
532.46         72.2294
532.90        72.04617
533.34        72.00325
533.78        72.08305
534.22        72.20732
534.66        72.28145
535.09        72.22541
535.53        71.95582
535.97        71.56593
536.41        71.36572
536.85        71.39575
537.28        71.49828
537.72        71.63416
538.16        71.79703
538.60        71.95528
539.04        72.11057
539.47         72.2198
539.91        72.25921
540.35        72.21035
540.79        72.10344
541.22        71.94481
541.66        71.86304
542.10        71.86226
542.54        71.92484
542.97        71.98978
543.41        71.99462
543.85        71.91094
544.29        71.76476
544.72        71.60187
545.16        71.52346
545.60         71.5388
546.04        71.66525
546.47         71.8352
546.91        71.88435
547.35        71.82887
547.79        71.78202
548.22        71.79025
548.66        71.96618
549.10        72.29013
549.53        72.32907
549.97        72.11539
550.41        71.89935
550.84        71.75375
551.28        71.71913
551.72        71.76908
552.15         71.7459
552.59        71.67305
553.03        71.66209
553.46        71.83589
553.90        71.88938
554.34        71.82924
554.77        71.84707
555.21        72.00504
555.65        71.69863
556.08        71.99994
556.52        71.99043
556.96        71.96424
557.39        72.00355
557.83        72.08181
558.27        71.88814
558.70        71.47142
559.14         71.3269
559.57        71.42812
560.01        71.34713
560.45        71.16261
560.88        71.36591
561.32        71.86764
561.75        72.16233
562.19        72.18707
562.63        71.90317
563.06        71.47845
563.50        71.49513
563.93         71.8605
564.37        72.00176
564.80        71.86097
565.24        71.70799
565.68        71.49059
566.11        71.63383
566.55        71.09032
566.98        70.92091
567.42        70.92281
567.85         71.0133
568.29        71.38146
568.72        71.77321
569.16        72.25391
569.60        72.34766
570.03         72.2344
570.47          72.372
570.90        72.69318
571.34        71.54499
571.77        71.99989
572.21        72.75478
572.64        72.45985
573.08        72.61373
573.51        71.99326
573.95        71.93526
574.38        72.43217
574.82        72.13114
