SpectraSmart Spectrum 2.9.0.0
--------- Device Information -----------
Spectrum Name :  反射率_0
Saving Time :  2024/04/26 22:38:42
Spectro-Module Model Name : SE2030-DUVN
Spectro-Module Serial Number : OS361AC55029948
Wavelength Start : 200
Wavelength End : 1025
Wavelength Unit : Wavelength(nm)
Spectrum Unit : Reflectance(%)
-----------Spectrum Setting ------------
Integration Time : 20ms
Average : 10
Boxcar : 0
Background removal :  enabled
linearity correction :  enabled
SC :  disabled
Intensity correction :  disabled
DWT denoise :  enabled
savitzky-golay :  disabled
FFT :  disabled
Running average :  disabled
Kalman :  disabled
High pass :  disabled
---------------BEGIN--------------------
Wavelength(nm)             Reflectance(%)
200.29               0
200.75        53.02947
201.21        55.69489
201.67        58.52335
202.13        59.97692
202.58        59.94257
203.04        59.36329
203.50        58.96874
203.96        60.24263
204.42        64.04195
204.88         69.6618
205.34        75.55558
205.80        79.35215
206.26         80.0488
206.72        78.08288
207.18         75.0486
207.64        72.14022
208.10        69.28935
208.55        66.41815
209.01        61.86502
209.47         55.6166
209.93        50.75109
210.39        48.61476
210.85        48.89828
211.31        51.43334
211.77        57.12816
212.23        70.10651
212.69        103.0926
213.14        162.0793
213.60        165.3343
214.06        128.1652
214.52        101.0832
214.98        87.81899
215.44        80.81287
215.90        74.99299
216.36        70.67003
216.81        69.21945
217.27        71.24525
217.73        78.45683
218.19        88.36832
218.65        88.19607
219.11        76.09553
219.57         61.7114
220.02        52.93204
220.48        53.29435
220.94        61.82117
221.40        79.21321
221.86        105.0927
222.32        123.0907
222.77        117.9968
223.23        100.4064
223.69        81.86385
224.15        68.86823
224.61        60.82697
225.06        55.06132
225.52        51.40415
225.98        49.52363
226.44        48.93956
226.90        49.60645
227.36        50.61728
227.81        50.40067
228.27        48.86729
228.73        46.45858
229.19        44.29895
229.65        43.69353
230.10        44.64641
230.56        46.71054
231.02        48.77969
231.48        49.15107
231.93        47.56842
232.39        44.97996
232.85        42.56228
233.31        41.85538
233.77        42.98465
234.22        45.44259
234.68        48.23654
235.14        49.90878
235.60        50.06701
236.05        49.16368
236.51        47.90876
236.97        47.79216
237.43        49.40678
237.88        52.33099
238.34         55.9439
238.80        59.60678
239.26        63.25229
239.71        67.71258
240.17        72.83849
240.63        78.21095
241.08        83.43232
241.54        87.46131
242.00         91.5781
242.46        99.42171
242.91        114.3984
243.37        138.9646
243.83        174.6037
244.28        207.6307
244.74        214.6154
245.20        192.9953
245.66        161.6015
246.11        138.6188
246.57        125.5725
247.03        117.6561
247.48        110.9781
247.94        101.4333
248.40        91.27505
248.85          83.518
249.31        79.05402
249.77        77.16856
250.22        77.05185
250.68        78.00062
251.14        80.34907
251.59        84.31422
252.05        88.92933
252.51        93.66647
252.96        95.72375
253.42         93.5394
253.88        88.26577
254.33        81.23209
254.79        76.41547
255.25        76.82947
255.70        81.79085
256.16        89.64263
256.62        96.67487
257.07        97.32647
257.53        92.92712
257.99        86.85981
258.44        81.35583
258.90        78.60158
259.35        77.55749
259.81        77.60931
260.27        77.80757
260.72        77.21179
261.18        76.03297
261.63        74.31173
262.09        72.82042
262.55        71.73816
263.00        70.90636
263.46        70.36697
263.91        69.53458
264.37        68.10255
264.83        66.08036
265.28        63.67611
265.74        61.55154
266.19        60.14723
266.65        59.56352
267.11        59.47972
267.56        59.50583
268.02        59.04688
268.47        57.94584
268.93        56.43867
269.38        54.72814
269.84        53.19238
270.30        51.92133
270.75        50.78687
271.21        49.77091
271.66        48.77369
272.12        47.77454
272.57        46.80772
273.03         45.8554
273.48        44.86091
273.94        43.88145
274.39        42.87399
274.85        41.98318
275.31        41.25913
275.76        40.66925
276.22        40.23314
276.67        39.79233
277.13        39.23042
277.58        38.47802
278.04        37.61433
278.49        36.72803
278.95        36.08224
279.40        35.65553
279.86        35.43767
280.31        35.20204
280.77        34.75099
281.22        34.01657
281.68         33.1506
282.13        32.31048
282.59        31.80415
283.04        31.63558
283.50        31.74012
283.95        31.91144
284.41        31.84122
284.86        31.47371
285.32         30.9557
285.77        30.49029
286.22        30.43023
286.68        30.81513
287.13        31.45905
287.59        32.16359
288.04        32.57906
288.50        32.64224
288.95        32.44021
289.41        32.11261
289.86        31.78253
290.32        31.55934
290.77        31.41058
291.22        31.37713
291.68        31.50206
292.13        31.79183
292.59         32.2782
293.04         32.9797
293.50        33.92834
293.95        35.09562
294.40        36.45506
294.86        37.92151
295.31        39.35644
295.77        40.73609
296.22        42.07753
296.68        43.45811
297.13        44.98634
297.58        46.70577
298.04         48.5877
298.49        50.58453
298.95        52.64341
299.40        54.71422
299.85        56.79874
300.31        58.90513
300.76        61.01683
301.21        63.13903
301.67        65.29401
302.12        67.40011
302.58        69.44181
303.03        71.37422
303.48        73.24153
303.94        75.17294
304.39        77.27904
304.84        79.60208
305.30        82.10555
305.75        84.59605
306.20        86.87889
306.66        88.92726
307.11        90.76328
307.57        92.51838
308.02        94.26933
308.47        96.07108
308.93        97.87797
309.38        99.64858
309.83        101.4619
310.29        103.3159
310.74        105.1924
311.19        106.9428
311.65        108.2858
312.10        109.1545
312.55        109.6359
313.00        109.9995
313.46        110.6725
313.91        111.7259
314.36        113.0748
314.82        114.4798
315.27        115.5603
315.72        116.1876
316.18        116.5074
316.63        116.6806
317.08        117.0182
317.53         117.605
317.99        118.3251
318.44         119.069
318.89        119.6297
319.35        119.9442
319.80         120.095
320.25        120.1687
320.70         120.298
321.16        120.5249
321.61        120.8531
322.06        121.2201
322.51         121.538
322.97        121.7646
323.42        121.9289
323.87        122.1307
324.32        122.5555
324.78         123.186
325.23        124.0499
325.68        124.8476
326.13        125.1044
326.59        124.7298
327.04        123.9066
327.49        123.0386
327.94        122.8016
328.39        123.3512
328.85        124.4472
329.30        125.8387
329.75        126.7648
330.20         126.976
330.66        126.6589
331.11        126.1496
331.56        125.9047
332.01        126.0819
332.46        126.5041
332.92        126.9948
333.37        127.4573
333.82        127.7587
334.27        128.0212
334.72        128.2349
335.17         128.345
335.63        128.3672
336.08        128.3751
336.53        128.5324
336.98        129.1744
337.43        130.3467
337.88        131.9061
338.34        133.5658
338.79        134.9773
339.24        135.9166
339.69          136.47
340.14        136.6446
340.59        136.4914
341.05         136.131
341.50        135.5746
341.95        135.0595
342.40        134.9422
342.85        135.3051
343.30        136.0701
343.75        137.0519
344.20        137.9109
344.66        138.5226
345.11        138.9499
345.56        139.2292
346.01        139.4373
346.46        139.6264
346.91        139.7864
347.36         139.923
347.81        140.0724
348.26        140.2344
348.72        140.3747
349.17        140.5619
349.62        140.9379
350.07        141.4911
350.52        142.1987
350.97        142.7228
351.42        142.5288
351.87        141.5645
352.32        140.0232
352.77        138.4753
353.22        137.7574
353.67        138.0193
354.13        139.0061
354.58        140.1718
355.03        140.5459
355.48        139.8774
355.93        138.4688
356.38        136.8701
356.83        135.9076
357.28        135.7512
357.73           136.1
358.18        136.5099
358.63        136.2833
359.08         135.247
359.53        133.6756
359.98        131.9083
360.43        130.4144
360.88        129.3221
361.33        128.4776
361.78        127.7321
362.23        126.8703
362.68        125.8365
363.13        124.7287
363.58        123.6276
364.03        122.6285
364.48        121.7442
364.93        120.9145
365.38        120.0844
365.83         119.191
366.28        118.2246
366.73        117.2231
367.18        116.2149
367.63        115.2322
368.08        114.2897
368.53        113.3805
368.98         112.516
369.43        111.7092
369.88        110.9583
370.33        110.2602
370.78        109.5846
371.23        108.8898
371.68        108.1603
372.13        107.3866
372.58        106.6073
373.03        105.8848
373.48        105.2184
373.93        104.5869
374.38        103.8946
374.83        102.9987
375.28        101.8929
375.72         100.624
376.17        99.40176
376.62        98.41171
377.07        97.71204
377.52        97.27113
377.97        96.96731
378.42        96.61357
378.87        96.15366
379.32        95.59634
379.77        95.10091
380.22        94.90363
380.67        95.00813
381.11        95.36094
381.56         95.5648
382.01        95.07426
382.46        93.84094
382.91        92.13701
383.36        90.47412
383.81        89.54515
384.26        89.45422
384.71        89.95408
385.15        90.71162
385.60        91.14014
386.05        91.04499
386.50        90.59937
386.95        89.90366
387.40        89.12434
387.85        88.36105
388.29        87.51708
388.74        86.78895
389.19        86.22794
389.64        85.83618
390.09        85.60421
390.54        85.44163
390.98        85.16264
391.43        84.76326
391.88        84.27921
392.33        83.80652
392.78        83.39827
393.23        83.05674
393.67        82.95499
394.12           83.04
394.57        82.51396
395.02        81.61768
395.47        81.66101
395.91        82.47845
396.36        82.60271
396.81        81.96642
397.26        81.37967
397.71        80.97063
398.15        80.60664
398.60        80.42941
399.05        80.27164
399.50        80.09673
399.95        80.22653
400.39        80.52392
400.84        80.01479
401.29        78.89737
401.74        78.67103
402.18         79.1982
402.63        78.75747
403.08        77.51208
403.53         76.9707
403.97        77.18678
404.42        77.38451
404.87          77.409
405.32         77.2914
405.76        76.97643
406.21         76.6193
406.66        76.28843
407.11         75.8852
407.55        75.60475
408.00        75.82151
408.45        76.42976
408.90        76.99991
409.34        77.21966
409.79        76.66364
410.24        75.61631
410.68         75.0328
411.13        75.02003
411.58        75.05115
412.03        74.99816
412.47        74.90043
412.92        74.69907
413.37         74.4287
413.81        74.17595
414.26        74.13419
414.71        74.30006
415.15        74.63809
415.60        75.00838
416.05        75.25397
416.49        75.31968
416.94        75.23938
417.39        75.08517
417.83         74.9534
418.28        74.88596
418.73        74.85815
419.17        74.85488
419.62        74.85539
420.07        74.83635
420.51        74.77975
420.96        74.73359
421.41        74.65976
421.85        74.52216
422.30        74.53845
422.74        74.56393
423.19         74.1766
423.64        73.50204
424.08        73.34058
424.53        73.67417
424.98        73.85876
425.42        73.86801
425.87        74.05971
426.31        74.39634
426.76        74.57156
427.21        74.58608
427.65         74.5409
428.10        74.42196
428.54        74.36968
428.99        74.44197
429.44        74.13334
429.88        73.70065
430.33        74.37777
430.77        75.68017
431.22        76.06438
431.66        75.42764
432.11        74.53054
432.56        73.78401
433.00        73.54836
433.45        74.01878
433.89        75.08666
434.34        75.92231
434.78        76.52931
435.23         75.7593
435.67        73.28221
436.12        73.81507
436.57        74.04744
437.01        74.99957
437.46        75.43661
437.90        75.35466
438.35        74.10568
438.79        74.52985
439.24        74.36333
439.68        74.38659
440.13        74.81149
440.57        75.49911
441.02        75.43506
441.46        74.77852
441.91        75.27253
442.35        76.48197
442.80        76.46327
443.24        75.40856
443.69         75.3365
444.13        76.18975
444.58        76.52639
445.02        76.30202
445.47        76.28687
445.91        76.51759
446.36        76.71884
446.80         76.8649
447.24        77.10381
447.69        77.38193
448.13        77.38592
448.58        77.21774
449.02        77.34354
449.47        77.70415
449.91         77.7612
450.36        77.51902
450.80        77.25658
451.25        77.06491
451.69        76.89713
452.13        76.79289
452.58        76.75394
453.02        76.75821
453.47        76.77503
453.91        76.77689
454.36        76.78356
454.80        76.77531
455.24        76.59463
455.69        76.22599
456.13        75.94962
456.58        75.91649
457.02        75.07986
457.46        74.95718
457.91        75.28673
458.35        75.78408
458.79        75.76481
459.24        75.15006
459.68         74.2384
460.13        73.31892
460.57        73.06923
461.01        73.70843
461.46         73.3639
461.90        74.12908
462.34        75.37768
462.79        74.16809
463.23        74.37328
463.68        74.79838
464.12        74.71161
464.56        74.04377
465.01        73.25583
465.45        72.55432
465.89        72.34608
466.34        72.54096
466.78         72.7463
467.22        72.88982
467.67        72.41896
468.11        72.29375
468.55        72.32022
468.99        72.67041
469.44        72.68689
469.88        72.35835
470.32         72.0793
470.77         71.9022
471.21        71.74276
471.65        71.60474
472.10        71.51453
472.54        71.47057
472.98         71.4257
473.42        71.35116
473.87        71.43578
474.31        71.53673
474.75        71.11095
475.20        70.36596
475.64        70.21432
476.08        70.62351
476.52        70.64861
476.97        70.22375
477.41        70.10146
477.85        70.45012
478.29        69.86835
478.74        70.45845
479.18        70.86922
479.62        70.55928
480.06        70.52565
480.50        70.40438
480.95        70.31003
481.39        70.27409
481.83        69.75064
482.27        69.63802
482.72        70.09895
483.16        69.68521
483.60        69.77197
484.04        69.91357
484.48        70.21358
484.93        70.29742
485.37        70.24422
485.81        69.84855
486.25        68.95107
486.69        69.37578
487.14        71.68029
487.58        71.51537
488.02        70.37492
488.46         69.2155
488.90        68.98512
489.34        70.85701
489.79        71.31849
490.23        70.38486
490.67        69.51244
491.11        68.98316
491.55        68.86209
491.99        69.07884
492.43        69.02879
492.88         68.6939
493.32        68.63563
493.76        68.85841
494.20        68.98969
494.64        68.98697
495.08         69.0574
495.52        69.15186
495.96        68.95602
496.41        68.57072
496.85        68.55789
497.29        68.76646
497.73        68.91756
498.17        68.16314
498.61        68.06174
499.05        68.34976
499.49        68.48619
499.93        68.22282
500.37        68.39259
500.82        68.81314
501.26        68.70195
501.70        68.17152
502.14        68.12505
502.58        68.55325
503.02        68.73476
503.46        68.64005
503.90        68.71878
504.34        68.90801
504.78        68.82129
505.22         68.4799
505.66        68.16417
506.10        67.95208
506.54         67.8025
506.98        67.74415
507.42         67.8346
507.86        68.01735
508.30         68.1522
508.74        68.20277
509.18        68.20456
509.62        68.17626
510.06         68.1516
510.50        68.14014
510.94        68.11903
511.38        68.08661
511.82         68.0464
512.26        68.00116
512.70        67.96441
513.14        67.92599
513.58        67.86485
514.02        67.78307
514.46        67.68431
514.90        67.61156
515.34        67.63786
515.78        67.76086
516.22        67.95537
516.66        68.14529
517.10        68.21294
517.54        68.13297
517.98        67.94661
518.42        67.71561
518.86        67.54099
519.30        67.45626
519.74        67.43134
520.18        67.45216
520.62        67.49364
521.06        67.54341
521.50        67.61731
521.93        67.69544
522.37        67.72042
522.81        67.69158
523.25        67.61185
523.69        67.52844
524.13        67.52201
524.57        67.60081
525.01        67.73289
525.45        67.85398
525.89         67.8587
526.32        67.72065
526.76        67.50343
527.20         67.2556
527.64        67.05788
528.08         66.9404
528.52        66.87648
528.96         66.8764
529.40        66.95603
529.83        67.09886
530.27        67.30114
530.71         67.4905
531.15        67.55805
531.59        67.48197
532.03        67.28966
532.46        67.04079
532.90        66.88111
533.34        66.83557
533.78        66.83175
534.22        66.83024
534.66        66.85031
535.09        66.82751
535.53        66.63111
535.97        66.32115
536.41        66.16181
536.85        66.18217
537.28        66.24641
537.72        66.33376
538.16        66.46384
538.60        66.61403
539.04        66.77235
539.47        66.89668
539.91        66.96439
540.35        66.95741
540.79        66.89384
541.22        66.79274
541.66        66.70503
542.10        66.64133
542.54        66.59466
542.97        66.55681
543.41        66.54327
543.85        66.54177
544.29        66.55717
544.72        66.56184
545.16        66.55228
545.60        66.51584
546.04        66.46317
546.47        66.41779
546.91        66.43144
547.35        66.51088
547.79        66.58734
548.22        66.63802
548.66        66.74249
549.10        66.89815
549.53        66.79111
549.97        66.49949
550.41        66.26347
550.84        66.19118
551.28        66.27812
551.72          66.422
552.15        66.53982
552.59        66.77038
553.03        66.08406
553.46        66.53338
553.90        66.42921
554.34        66.36364
554.77         66.3393
555.21        66.37752
555.65        66.38433
556.08        66.45199
556.52        66.45103
556.96        66.41193
557.39        66.49605
557.83        66.65256
558.27        66.50009
558.70        66.09441
559.14        65.93474
559.57        65.99914
560.01        65.93992
560.45        65.79198
560.88        65.82673
561.32        66.05172
561.75        66.30305
562.19        66.51378
562.63        66.48561
563.06        66.26046
563.50        66.18567
563.93        66.21047
564.37        66.15064
564.80        66.04487
565.24        65.90311
565.68        65.59383
566.11        66.26994
566.55        65.55421
566.98        65.37817
567.42        65.19798
567.85         65.3624
568.29        65.81159
568.72        66.15165
569.16        66.44492
569.60        66.55612
570.03         66.6462
570.47        66.89294
570.90        67.47152
571.34        66.30968
571.77        66.85707
572.21        67.61913
572.64        66.88144
573.08        67.42674
573.51        66.50192
573.95         66.3902
574.38        66.58618
574.82        67.20399
