SpectraSmart Spectrum 2.9.0.0
--------- Device Information -----------
Spectrum Name :  反射率_0
Saving Time :  2024/04/26 22:30:39
Spectro-Module Model Name : SE2030-DUVN
Spectro-Module Serial Number : OS361AC55029948
Wavelength Start : 200
Wavelength End : 1025
Wavelength Unit : Wavelength(nm)
Spectrum Unit : Reflectance(%)
-----------Spectrum Setting ------------
Integration Time : 20ms
Average : 10
Boxcar : 0
Background removal :  enabled
linearity correction :  enabled
SC :  disabled
Intensity correction :  disabled
DWT denoise :  enabled
savitzky-golay :  disabled
FFT :  disabled
Running average :  disabled
Kalman :  disabled
High pass :  disabled
---------------BEGIN--------------------
Wavelength(nm)             Reflectance(%)
200.29               0
200.75        59.41461
201.21        52.85049
201.67        47.52432
202.13        45.28839
202.58        46.06887
203.04        49.78712
203.50        56.52107
203.96        64.58907
204.42        72.01651
204.88        78.44849
205.34        82.54769
205.80        83.41472
206.26        81.31022
206.72        76.44421
207.18        71.24065
207.64        67.57188
208.10        65.30926
208.55        64.68606
209.01        64.22445
209.47        61.51565
209.93        57.43374
210.39        54.24768
210.85        53.41349
211.31        56.07317
211.77        63.40633
212.23        80.21473
212.69         121.815
213.14        190.3775
213.60        184.4647
214.06        134.3979
214.52        100.1443
214.98        82.53994
215.44        71.93813
215.90        62.62146
216.36        55.57233
216.81        53.61517
217.27        57.90998
217.73        70.33151
218.19        87.94583
218.65        92.31602
219.11         78.3319
219.57        59.28202
220.02        46.42966
220.48        44.48375
220.94        51.89863
221.40        68.48206
221.86        94.03033
222.32        112.8509
222.77        109.6345
223.23        94.51583
223.69        77.43851
224.15         63.9611
224.61        54.21693
225.06        46.18314
225.52        40.93169
225.98        39.55375
226.44        41.40688
226.90          45.819
227.36        50.58378
227.81        51.85128
228.27        49.17865
228.73        44.07236
229.19        39.05252
229.65        36.97823
230.10        37.95805
230.56        40.87375
231.02        44.04121
231.48         44.8358
231.93        42.82803
232.39        39.50114
232.85        36.16338
233.31        34.43741
233.77        34.52667
234.22        35.76588
234.68        37.61368
235.14        39.42391
235.60        40.92641
236.05        42.46711
236.51        43.80775
236.97        44.35279
237.43         43.9934
237.88        42.80913
238.34        41.63582
238.80        42.25092
239.26        45.41175
239.71         51.6105
240.17        60.35267
240.63        69.16632
241.08        76.05261
241.54        80.24084
242.00        83.15762
242.46        89.13048
242.91        101.8313
243.37        122.8308
243.83        153.4606
244.28        182.5922
244.74        190.3057
245.20        174.1064
245.66        150.0684
246.11        134.0168
246.57        127.4491
247.03        126.3117
247.48          124.66
247.94        114.6812
248.40        99.77263
248.85         85.7602
249.31        76.43371
249.77         72.9406
250.22        74.11934
250.68        78.94562
251.14        86.14937
251.59        90.59222
252.05        89.33262
252.51        85.07912
252.96        79.30949
253.42         73.9313
253.88        69.34212
254.33        64.70898
254.79        62.13858
255.25        63.07065
255.70        66.76251
256.16        72.36639
256.62        76.55373
257.07         74.6599
257.53        68.52762
257.99        61.36405
258.44        55.53714
258.90        53.07924
259.35        52.86891
259.81        53.99981
260.27        55.18197
260.72        54.97157
261.18        53.51385
261.63        51.24324
262.09        49.14969
262.55        47.80205
263.00        47.08996
263.46        46.83016
263.91        46.38341
264.37        45.21861
264.83        43.35635
265.28         41.1099
265.74        39.14473
266.19        38.02182
266.65         37.8273
267.11        38.22371
267.56        38.79903
268.02        38.90483
268.47        38.35852
268.93         37.3865
269.38        36.18858
269.84        35.11839
270.30        34.27373
270.75        33.53443
271.21        32.87792
271.66        32.23413
272.12        31.57944
272.57        30.93533
273.03        30.30439
273.48        29.66472
273.94         29.0535
274.39        28.44535
274.85        27.86895
275.31        27.25532
275.76        26.58864
276.22        25.91765
276.67        25.28507
277.13        24.81768
277.58         24.4869
278.04        24.26563
278.49        24.02506
278.95        23.67002
279.40        23.15063
279.86        22.57726
280.31        21.98004
280.77        21.47851
281.22        21.07274
281.68        20.76008
282.13        20.52661
282.59          20.415
283.04          20.392
283.50        20.45884
283.95        20.53954
284.41        20.51252
284.86        20.36226
285.32        20.15374
285.77        19.95849
286.22        19.92989
286.68        20.08893
287.13         20.3434
287.59        20.65208
288.04        20.91532
288.50        21.10937
288.95        21.24327
289.41        21.29764
289.86        21.19012
290.32        20.96752
290.77        20.66619
291.22        20.42372
291.68        20.43186
292.13        20.73117
292.59         21.2949
293.04        22.04025
293.50        22.83982
293.95         23.6419
294.40        24.48095
294.86        25.39755
295.31        26.44902
295.77        27.64916
296.22        28.95441
296.68        30.32022
297.13        31.67514
297.58        33.01531
298.04        34.37243
298.49        35.79475
298.95        37.36917
299.40        39.09779
299.85        40.94889
300.31        42.86643
300.76        44.75018
301.21        46.58045
301.67        48.39859
302.12        50.20882
302.58        52.09658
303.03         54.0348
303.48         56.0169
303.94         58.0392
304.39         60.0404
304.84        62.03737
305.30         64.0642
305.75        66.08522
306.20        68.12669
306.66         70.1965
307.11         72.2366
307.57        74.25779
308.02        76.18116
308.47        78.00896
308.93        79.75587
309.38        81.40972
309.83        83.06841
310.29         84.7553
310.74        86.44283
311.19        88.05044
311.65        89.41597
312.10        90.48401
312.55        91.29588
313.00         92.0056
313.46        92.86259
313.91        93.90368
314.36        95.09221
314.82        96.26622
315.27        97.17287
315.72        97.73127
316.18        98.04618
316.63        98.25758
317.08        98.63416
317.53        99.24577
317.99        100.0008
318.44        100.7829
318.89        101.3733
319.35        101.7043
319.80        101.8454
320.25        101.9013
320.70         102.038
321.16        102.3041
321.61        102.6967
322.06        103.1101
322.51        103.3824
322.97        103.4662
323.42        103.4145
323.87        103.4108
324.32          103.77
324.78        104.5104
325.23        105.6108
325.68        106.6936
326.13        107.1372
326.59        106.8017
327.04         105.908
327.49        104.9207
327.94        104.6058
328.39        105.1514
328.85         106.302
329.30        107.7681
329.75        108.7638
330.20        109.0217
330.66        108.7355
331.11        108.2505
331.56        108.0489
332.01        108.2883
332.46        108.7847
332.92        109.3164
333.37        109.6879
333.82        109.7626
334.27        109.6927
334.72        109.5682
335.17        109.4972
335.63        109.5395
336.08         109.719
336.53         110.099
336.98        110.8361
337.43        111.9229
337.88        113.2623
338.34        114.6592
338.79        115.9016
339.24        116.8206
339.69        117.4622
340.14        117.7605
340.59        117.6515
341.05        117.2231
341.50        116.5249
341.95        115.8697
342.40        115.7264
342.85        116.1953
343.30         117.159
343.75        118.3369
344.20        119.2343
344.66        119.6974
345.11        119.8478
345.56        119.8308
346.01        119.8962
346.46        120.1297
346.91        120.4469
347.36        120.7816
347.81        121.0573
348.26        121.2403
348.72        121.3527
349.17        121.4491
349.62        121.6393
350.07        121.9346
350.52        122.3217
350.97        122.6018
351.42        122.4658
351.87        121.8856
352.32        120.9684
352.77        120.0808
353.22        119.7575
353.67        120.0812
354.13        120.8839
354.58        121.7608
355.03        121.9917
355.48        121.4044
355.93        120.2279
356.38        118.9117
356.83        118.1337
357.28        118.0279
357.73        118.3448
358.18        118.7219
358.63        118.5825
359.08        117.7754
359.53         116.525
359.98        115.0696
360.43        113.7362
360.88         112.631
361.33        111.6538
361.78         110.764
362.23        109.9136
362.68        109.0909
363.13        108.3472
363.58        107.6683
364.03        107.0046
364.48        106.3292
364.93        105.6133
365.38        104.8844
365.83        104.2116
366.28        103.6041
366.73        103.0475
367.18        102.4471
367.63        101.6508
368.08         100.647
368.53        99.50148
368.98        98.37006
369.43        97.49451
369.88        96.92791
370.33        96.59166
370.78        96.35073
371.23        95.98117
371.68        95.40906
372.13        94.69449
372.58        93.90502
373.03        93.14959
373.48        92.46043
373.93        91.79135
374.38        91.11609
374.83        90.40933
375.28        89.66466
375.72        88.88501
376.17        88.13801
376.62        87.40355
377.07        86.70166
377.52        86.06989
377.97        85.49709
378.42        84.98017
378.87        84.52315
379.32        84.08303
379.77        83.76945
380.22        83.74677
380.67        83.99327
381.11        84.47443
381.56        84.80676
382.01        84.44428
382.46         83.3297
382.91        81.72008
383.36        80.10828
383.81        79.16825
384.26        79.01317
384.71        79.41785
385.15        80.08559
385.60        80.49133
386.05        80.45683
386.50        80.13314
386.95        79.60927
387.40        79.03034
387.85        78.47372
388.29        77.84299
388.74        77.28431
389.19        76.81327
389.64        76.43025
390.09        76.13432
390.54        75.89178
390.98        75.61753
391.43        75.33895
391.88        75.06783
392.33        74.82741
392.78        74.64986
393.23        74.53607
393.67        74.43086
394.12        74.37962
394.57        74.31237
395.02        74.20811
395.47        74.04539
395.91        73.85803
396.36        73.67848
396.81        73.55126
397.26        73.48311
397.71         73.3821
398.15        73.15551
398.60        72.89162
399.05        72.34304
399.50         71.7261
399.95        71.87241
400.39        72.58108
400.84        72.50058
401.29        71.66188
401.74        71.24598
402.18        71.31368
402.63        71.13853
403.08         70.7668
403.53        70.58601
403.97         70.6037
404.42        70.71408
404.87        70.82337
405.32        70.75446
405.76        70.46653
406.21        70.13525
406.66        69.83727
407.11        69.53576
407.55        69.38109
408.00         69.6456
408.45        70.21116
408.90        70.62947
409.34        70.69309
409.79        70.27345
410.24        69.61147
410.68        69.30757
411.13        69.44424
411.58         69.7141
412.03        69.92773
412.47        69.89417
412.92        69.53462
413.37        68.96688
413.81        68.39704
414.26        68.17947
414.71        68.35365
415.15        68.84148
415.60         69.4491
416.05        69.90665
416.49        70.11422
416.94        70.13546
417.39        70.06805
417.83        70.05705
418.28        70.14915
418.73        70.27796
419.17         70.4122
419.62        70.51565
420.07        70.56762
420.51        70.57837
420.96         70.5656
421.41        70.48657
421.85        70.32597
422.30        70.18088
422.74        70.03138
423.19        69.92587
423.64        69.86823
424.08        69.93395
424.53        70.09978
424.98        70.31709
425.42         70.5787
425.87         70.8938
426.31        71.20547
426.76        71.33952
427.21        71.30949
427.65        71.24197
428.10        71.18444
428.54        71.19366
428.99        71.32533
429.44        71.41218
429.88        71.49062
430.33        71.88596
430.77        72.40538
431.22        72.69336
431.66         72.6762
432.11        72.46457
432.56         72.2459
433.00        72.19321
433.45        72.44866
433.89        73.26461
434.34        74.07645
434.78        74.22823
435.23        74.10188
435.67        71.81307
436.12          72.934
436.57        73.10426
437.01        73.68941
437.46        73.90517
437.90        73.70651
438.35        73.49131
438.79        73.36013
439.24         73.3862
439.68         73.5658
440.13        74.05634
440.57        74.70339
441.02        74.77308
441.46        74.38839
441.91        74.67095
442.35        75.37722
442.80        75.59122
443.24        75.31723
443.69        75.21202
444.13        75.36115
444.58        75.72295
445.02        76.21239
445.47         76.5324
445.91        76.66408
446.36        76.92328
446.80        77.28603
447.24        77.53249
447.69        77.65836
448.13        77.75229
448.58        77.83613
449.02        77.86217
449.47        77.86276
449.91        77.85061
450.36        77.85666
450.80        77.86343
451.25        77.88962
451.69        77.89262
452.13        77.88849
452.58        77.88241
453.02        77.87897
453.47        77.91311
453.91        77.98259
454.36        78.02638
454.80         78.0175
455.24        78.01694
455.69        77.96201
456.13        77.62199
456.58        77.15912
457.02        76.69675
457.46        76.49454
457.91        76.67648
458.35        77.01018
458.79        76.86232
459.24        76.26182
459.68        75.44234
460.13        74.71609
460.57          74.522
461.01        75.02716
461.46        75.27488
461.90         75.9731
462.34        77.00494
462.79        76.99729
463.23        76.63526
463.68        77.01357
464.12        76.55918
464.56        75.78703
465.01        74.87624
465.45        74.05214
465.89        73.75833
466.34        73.90884
466.78        74.29656
467.22        74.80429
467.67        74.40801
468.11        74.37681
468.55        74.47577
468.99        74.97327
469.44         75.0624
469.88        74.73426
470.32        74.44503
470.77        74.26656
471.21        74.12775
471.65         74.0406
472.10        74.03391
472.54        74.06901
472.98        74.05494
473.42        73.96359
473.87        73.95047
474.31         73.9245
474.75        73.56837
475.20        73.02805
475.64        72.85648
476.08        73.08084
476.52        73.12328
476.97        72.92447
477.41        73.07116
477.85         73.6087
478.29        73.08734
478.74        73.24145
479.18        73.60567
479.62        73.46407
480.06        73.46131
480.50        73.24886
480.95        72.98279
481.39        72.69688
481.83        72.86895
482.27        72.35057
482.72        73.28305
483.16         72.9745
483.60        73.01755
484.04        73.30832
484.48        73.40017
484.93        73.01939
485.37        73.35907
485.81        72.35387
486.25        71.42751
486.69        69.46304
487.14        72.71949
487.58        74.41422
488.02         73.0537
488.46        72.21006
488.90        72.06268
489.34        73.74356
489.79        74.54952
490.23        73.99371
490.67        73.05225
491.11        72.07434
491.55        71.99684
491.99        72.70374
492.43         72.8351
492.88        72.32719
493.32        72.11539
493.76        72.28141
494.20        72.43015
494.64         72.5462
495.08        72.82344
495.52        73.12116
495.96        73.05727
496.41        72.69852
496.85        72.44713
497.29        72.30169
497.73        72.55331
498.17        72.23019
498.61        72.22857
499.05        72.23775
499.49        72.30692
499.93        72.18845
500.37        72.26038
500.82        72.42466
501.26        72.48811
501.70         72.4603
502.14         72.5483
502.58        72.74612
503.02        72.87794
503.46        72.92828
503.90        72.99043
504.34        73.03277
504.78        72.95028
505.22        72.71907
505.66        72.45087
506.10        72.24414
506.54        72.00587
506.98        71.70662
507.42        72.32442
507.86        72.03358
508.30        72.18569
508.74         72.2247
509.18        72.21323
509.62        72.15885
510.06        72.11584
510.50        72.11507
510.94        72.11813
511.38        72.13592
511.82        72.18749
512.26        72.27063
512.70        72.38271
513.14        72.49522
513.58        72.55929
514.02        72.56454
514.46        72.52238
514.90         72.4642
515.34        72.44395
515.78        72.47227
516.22        72.52885
516.66        72.58664
517.10        72.60102
517.54        72.56323
517.98        72.49773
518.42        72.41569
518.86        72.33362
519.30         72.2625
519.74        72.19331
520.18        72.15548
520.62        72.19383
521.06        72.31203
521.50        72.50337
521.93        72.70483
522.37        72.78803
522.81        72.73859
523.25        72.58714
523.69        72.42789
524.13        72.41264
524.57         72.5634
525.01        72.81748
525.45        73.07356
525.89        73.16883
526.32         73.0541
526.76        72.81042
527.20        72.49295
527.64        72.19275
528.08         71.9529
528.52         71.7523
528.96        71.61833
529.40        71.59245
529.83         71.6685
530.27        71.84271
530.71        72.04464
531.15        72.16405
531.59        72.17142
532.03        72.08618
532.46        71.94753
532.90        71.87473
533.34         71.8817
533.78        71.89555
534.22        71.88209
534.66        71.87943
535.09        71.82555
535.53        71.57605
535.97        71.20045
536.41        70.98977
536.85        70.97729
537.28        71.01971
537.72        71.09048
538.16        71.20066
538.60        71.32595
539.04        71.45814
539.47        71.55818
539.91        71.61402
540.35        71.60574
540.79        71.54002
541.22        71.43844
541.66        71.36209
542.10        71.32074
542.54         71.3065
542.97         71.2939
543.41        71.27388
543.85        71.23241
544.29        71.18505
544.72        71.13678
545.16        71.13018
545.60        71.15705
546.04        71.23018
546.47        71.33541
546.91        71.40598
547.35        71.44781
547.79        71.54565
548.22        71.67686
548.66        71.74355
549.10        71.80068
549.53        71.80125
549.97        71.76588
550.41         71.6078
550.84        71.40858
551.28        71.36139
551.72        71.41917
552.15        71.47961
552.59        71.59805
553.03        71.14699
553.46        71.57662
553.90         71.5396
554.34        71.43934
554.77        71.42757
555.21        71.57236
555.65        71.28336
556.08         71.5858
556.52        71.58891
556.96        71.58021
557.39        71.68964
557.83        71.86301
558.27        71.69032
558.70        71.23283
559.14        71.05333
559.57        71.12683
560.01        71.06998
560.45        70.92218
560.88         70.9601
561.32        71.19619
561.75        71.51538
562.19        71.81612
562.63        71.75954
563.06           71.44
563.50        71.37115
563.93        71.50089
564.37        71.65192
564.80        71.75397
565.24        71.47738
565.68        70.78684
566.11        71.37477
566.55        70.69691
566.98        70.67479
567.42        70.63999
567.85        70.61842
568.29         70.8611
568.72        71.17454
569.16        71.62222
569.60        71.70245
570.03        71.62024
570.47        71.56688
570.90        71.71695
571.34        70.92346
571.77        71.23392
572.21        71.93856
572.64        71.18806
573.08         72.1402
573.51        71.02302
573.95        70.76498
574.38        70.72777
574.82        71.02769
