SpectraSmart Spectrum 2.9.0.0
--------- Device Information -----------
Spectrum Name :  反射率_0
Saving Time :  2024/04/26 22:33:31
Spectro-Module Model Name : SE2030-DUVN
Spectro-Module Serial Number : OS361AC55029948
Wavelength Start : 200
Wavelength End : 1025
Wavelength Unit : Wavelength(nm)
Spectrum Unit : Reflectance(%)
-----------Spectrum Setting ------------
Integration Time : 20ms
Average : 10
Boxcar : 0
Background removal :  enabled
linearity correction :  enabled
SC :  disabled
Intensity correction :  disabled
DWT denoise :  enabled
savitzky-golay :  disabled
FFT :  disabled
Running average :  disabled
Kalman :  disabled
High pass :  disabled
---------------BEGIN--------------------
Wavelength(nm)             Reflectance(%)
200.29               0
200.75        51.81409
201.21         51.9849
201.67         52.3791
202.13        51.72063
202.58        49.70036
203.04        46.59854
203.50        43.49593
203.96        43.59538
204.42        48.86437
204.88        58.84617
205.34        69.56102
205.80        73.89048
206.26        70.38033
206.72        61.84069
207.18        53.30613
207.64        48.86827
208.10          48.675
208.55        52.46028
209.01        58.54164
209.47        60.15459
209.93        55.09842
210.39        48.46824
210.85         44.4516
211.31        45.23239
211.77        51.66715
212.23        68.00565
212.69         109.773
213.14        180.4045
213.60        177.2468
214.06        127.6387
214.52         93.1805
214.98        75.62309
215.44        65.34415
215.90        56.69903
216.36        49.87518
216.81        46.36766
217.27        46.98392
217.73        53.05098
218.19        63.79698
218.65        69.92908
219.11        66.93346
219.57        59.93362
220.02        55.45736
220.48        57.98593
220.94        67.49103
221.40        84.75095
221.86        108.9241
222.32        123.5306
222.77        114.7733
223.23        94.45956
223.69        74.33375
224.15        60.37661
224.61        51.72326
225.06        45.82265
225.52        42.21857
225.98        40.34473
226.44        39.70014
226.90        40.20715
227.36        41.20451
227.81         41.5475
228.27        41.04588
228.73        39.83655
229.19        38.59487
229.65        38.14956
230.10        38.51616
230.56        39.46877
231.02        40.24289
231.48         39.6867
231.93         37.7646
232.39        35.27473
232.85        33.20752
233.31        32.86525
233.77        34.29713
234.22        36.99771
234.68        40.10044
235.14        42.36523
235.60        43.38606
236.05        43.51394
236.51        43.01485
236.97         42.4884
237.43        42.27816
237.88        42.26496
238.34        42.52246
238.80        43.41661
239.26        45.20873
239.71        48.51886
240.17        53.34103
240.63        59.18574
241.08        65.49886
241.54        71.38139
242.00        77.60841
242.46        86.99818
242.91         102.503
243.37        126.3223
243.83        158.5975
244.28        184.1301
244.74        181.1814
245.20          150.77
245.66        115.5568
246.11        94.77559
246.57        88.54801
247.03        91.06445
247.48        96.13931
247.94        93.87509
248.40        85.01291
248.85        75.47803
249.31        68.28038
249.77        64.04613
250.22        61.92491
250.68        60.57129
251.14        60.29473
251.59        62.29389
252.05        66.44043
252.51        71.87529
252.96        75.34784
253.42        74.54079
253.88        70.34004
254.33        64.16785
254.79        59.45698
255.25        58.76664
255.70        61.65052
256.16        66.81471
256.62         71.5346
257.07        71.78252
257.53         68.5509
257.99        64.24944
258.44        60.49349
258.90        58.94407
259.35        58.76506
259.81        59.44162
260.27        60.11983
260.72         59.9021
261.18        58.94474
261.63        57.37458
262.09         55.9132
262.55        54.82092
263.00         53.9939
263.46        53.42964
263.91        52.63742
264.37        51.31157
264.83        49.48248
265.28        47.36029
265.74         45.5172
266.19         44.3676
266.65        43.98843
267.11         44.0925
267.56        44.34112
268.02        44.20338
268.47        43.53259
268.93         42.5277
269.38        41.33389
269.84        40.22766
270.30        39.28833
270.75        38.42228
271.21        37.66233
271.66        37.01124
272.12        36.45606
272.57        35.98181
273.03         35.5205
273.48        34.94115
273.94        34.25919
274.39        33.47567
274.85        32.69768
275.31        31.94987
275.76        31.23246
276.22        30.57731
276.67        29.95637
277.13        29.40918
277.58        28.89466
278.04        28.42683
278.49        27.96243
278.95         27.5408
279.40        27.11647
279.86        26.74501
280.31        26.34357
280.77        25.88815
281.22        25.35327
281.68        24.80595
282.13        24.31032
282.59        24.02567
283.04        23.93947
283.50        24.02099
283.95        24.15052
284.41        24.14474
284.86        23.96572
285.32        23.69751
285.77        23.44306
286.22        23.40284
286.68        23.60444
287.13        23.94077
287.59        24.31649
288.04        24.54759
288.50        24.60676
288.95        24.53004
289.41        24.39491
289.86        24.25179
290.32        24.16605
290.77        24.12301
291.22        24.14763
291.68        24.26429
292.13        24.47845
292.59        24.81379
293.04        25.29875
293.50        25.98423
293.95        26.85894
294.40        27.90687
294.86        29.05363
295.31        30.17447
295.77        31.25259
296.22        32.31156
296.68         33.4361
297.13        34.74929
297.58        36.28456
298.04        37.99628
298.49        39.81452
298.95        41.64595
299.40        43.43974
299.85        45.22345
300.31        47.00665
300.76         48.7853
301.21         50.5771
301.67         52.3978
302.12        54.23564
302.58        56.16017
303.03        58.13496
303.48        60.16342
303.94        62.24933
304.39        64.33412
304.84        66.42531
305.30        68.53738
305.75         70.6097
306.20        72.63908
306.66        74.63391
307.11        76.56087
307.57        78.43677
308.02        80.18347
308.47        81.82364
308.93        83.37969
309.38        84.90186
309.83        86.58428
310.29        88.45551
310.74         90.4511
311.19        92.38773
311.65        93.93355
312.10        94.98965
312.55        95.64552
313.00        96.14322
313.46        96.87085
313.91        97.89981
314.36        99.15144
314.82        100.4152
315.27        101.3598
315.72        101.8829
316.18        102.1252
316.63         102.255
317.08          102.58
317.53         103.182
317.99        103.9502
318.44        104.7638
318.89        105.3978
319.35        105.7803
319.80        105.9901
320.25        106.1146
320.70        106.2916
321.16        106.5652
321.61        106.9334
322.06        107.3309
322.51        107.6656
322.97        107.8984
323.42        108.0612
323.87        108.2634
324.32        108.7019
324.78        109.3666
325.23        110.2698
325.68        111.1149
326.13         111.426
326.59        111.1067
327.04        110.3379
327.49        109.5054
327.94        109.2518
328.39        109.7334
328.85         110.732
329.30        112.0221
329.75        112.9206
330.20        113.1976
330.66        113.0135
331.11        112.6709
331.56        112.5822
332.01        112.8836
332.46        113.4134
332.92        113.9717
333.37        114.4048
333.82        114.5838
334.27          114.64
334.72        114.6431
335.17        114.6734
335.63        114.7798
336.08        114.9984
336.53        115.3978
336.98        116.1449
337.43         117.239
337.88        118.5813
338.34        119.9822
338.79        121.2457
339.24        122.2039
339.69         122.903
340.14        123.2684
340.59        123.2183
341.05        122.8392
341.50        122.1884
341.95        121.5866
342.40        121.5168
342.85        122.0826
343.30        123.1564
343.75        124.4611
344.20        125.5082
344.66        126.1357
345.11        126.4589
345.56        126.5925
346.01        126.7376
346.46        126.9805
346.91        127.2663
347.36        127.5668
347.81        127.8651
348.26        128.1433
348.72        128.3935
349.17        128.6726
349.62        129.0981
350.07        129.6578
350.52        130.3225
350.97        130.8125
351.42        130.6881
351.87        129.9134
352.32        128.6646
352.77        127.4075
353.22        126.8228
353.67        127.0376
354.13        127.8366
354.58        128.8226
355.03        129.2761
355.48        128.9886
355.93        128.1729
356.38        127.1672
356.83         126.483
357.28        126.2332
357.73        126.2202
358.18        126.2024
358.63         125.815
359.08        124.9713
359.53        123.8355
359.98        122.5823
360.43        121.4349
360.88        120.4632
361.33        119.6032
361.78         118.804
362.23        117.9999
362.68        117.1756
363.13         116.365
363.58        115.5979
364.03        114.9014
364.48        114.2647
364.93        113.6563
365.38        113.0214
365.83        112.2915
366.28        111.4585
366.73         110.551
367.18        109.6252
367.63        108.7632
368.08        107.9889
368.53        107.2892
368.98        106.6291
369.43         105.945
369.88        105.2209
370.33        104.4741
370.78        103.7447
371.23        103.1055
371.68        102.5689
372.13        102.0972
372.58        101.6377
373.03        101.1068
373.48        100.4739
373.93        99.76129
374.38        98.98142
374.83        98.16442
375.28        97.33392
375.72        96.46775
376.17        95.65412
376.62        94.90691
377.07        94.24353
377.52         93.6872
377.97        93.19913
378.42         92.7239
378.87         92.2501
379.32        91.75638
379.77        91.34794
380.22        91.18084
380.67         91.2443
381.11        91.51092
381.56        91.65434
382.01        91.23898
382.46        90.22495
382.91        88.82464
383.36        87.44535
383.81        86.64071
384.26        86.49448
384.71        86.81334
385.15        87.33703
385.60        87.60275
386.05        87.46324
386.50         87.0581
386.95        86.47178
387.40        85.84411
387.85         85.2487
388.29        84.58604
388.74        84.02187
389.19        83.57542
389.64        83.24231
390.09        83.01913
390.54        82.82448
390.98        82.49446
391.43        82.04752
391.88        81.52884
392.33        81.05093
392.78         80.7068
393.23        80.50043
393.67        80.50948
394.12        80.69966
394.57        80.37914
395.02        79.95782
395.47        79.89755
395.91        80.21685
396.36        80.13847
396.81        79.66203
397.26        79.22977
397.71        78.89334
398.15        78.57315
398.60        78.38187
399.05        78.12382
399.50        77.86041
399.95        78.02431
400.39        78.46733
400.84        78.30419
401.29        77.57394
401.74        77.14513
402.18        77.04442
402.63        76.60178
403.08        75.94891
403.53        75.65791
403.97        75.75164
404.42        75.99628
404.87         76.2515
405.32        76.30451
405.76          76.089
406.21        75.82411
406.66        75.53279
407.11        75.08343
407.55        74.66879
408.00        74.56813
408.45        74.79254
408.90        75.33751
409.34         75.8671
409.79        75.49401
410.24        74.46716
410.68        74.00699
411.13        74.20044
411.58        74.34509
412.03        74.29987
412.47        74.18263
412.92        73.94427
413.37         73.5965
413.81         73.2634
414.26        73.19432
414.71        73.39864
415.15        73.83891
415.60        74.34491
416.05        74.69342
416.49        74.80747
416.94        74.73386
417.39        74.58022
417.83         74.5019
418.28        74.54965
418.73        74.67429
419.17        74.81113
419.62        74.86295
420.07        74.79433
420.51        74.62135
420.96        74.44377
421.41        74.30762
421.85        74.20038
422.30        74.29189
422.74        74.41277
423.19        74.16019
423.64        73.61818
424.08        73.46803
424.53        73.72398
424.98        73.89894
425.42        73.97958
425.87        74.26791
426.31        74.66682
426.76        74.74824
427.21        74.53136
427.65        74.29924
428.10        74.10266
428.54        74.01571
428.99        74.11509
429.44         74.0006
429.88        73.85177
430.33        74.66883
430.77        75.97377
431.22         76.3997
431.66        75.88948
432.11         75.1507
432.56        74.51563
433.00        74.43424
433.45        75.04127
433.89        75.70686
434.34        75.77039
434.78         76.9349
435.23        76.00107
435.67         74.2172
436.12        74.56443
436.57        74.57742
437.01        75.04012
437.46        75.40773
437.90        75.81297
438.35        74.09135
438.79        75.18349
439.24        75.13105
439.68         75.3239
440.13        75.82279
440.57        76.53159
441.02        76.62141
441.46          76.146
441.91        76.54998
442.35        77.45095
442.80        77.15454
443.24         75.9315
443.69        75.87683
444.13        76.90037
444.58        77.37137
445.02         77.2161
445.47        77.29008
445.91        77.70426
446.36        77.99133
446.80        78.15479
447.24        78.29092
447.69        78.39992
448.13        78.44987
448.58        78.46491
449.02        78.44758
449.47        78.42982
449.91        78.37994
450.36        78.32489
450.80        78.32622
451.25        78.37915
451.69        78.25942
452.13        78.04682
452.58        78.06775
453.02        78.29221
453.47        78.40717
453.91        78.38027
454.36        78.39302
454.80        78.42616
455.24        78.29567
455.69        77.99918
456.13        77.72623
456.58        77.57271
457.02        76.95593
457.46        76.56084
457.91        76.69009
458.35        77.20228
458.79        77.11722
459.24        76.49664
459.68        75.63126
460.13        74.76186
460.57        74.63095
461.01        75.49234
461.46        74.72382
461.90        75.58633
462.34        77.01508
462.79        76.59573
463.23        76.57726
463.68        76.65765
464.12        76.38898
464.56          75.911
465.01        75.01981
465.45        73.99327
465.89        73.70213
466.34        74.04358
466.78         74.3951
467.22        74.61763
467.67        74.30402
468.11        74.02176
468.55        74.11574
468.99         74.6205
469.44        74.68121
469.88         74.2794
470.32        73.93873
470.77        73.74163
471.21        73.57864
471.65        73.46208
472.10        73.43091
472.54        73.46005
472.98        73.46091
473.42        73.39752
473.87        73.46955
474.31        73.56063
474.75        73.16335
475.20         72.4724
475.64        72.42046
476.08        73.04785
476.52         73.0556
476.97         72.2996
477.41        72.61201
477.85        72.82314
478.29        71.79995
478.74        72.11463
479.18        73.16949
479.62        72.45023
480.06        72.05061
480.50        72.36928
480.95        72.36167
481.39        72.44391
481.83        71.96439
482.27        72.10627
482.72        72.37042
483.16        72.34112
483.60        71.92922
484.04        72.04572
484.48        72.09459
484.93         71.9878
485.37        71.97392
485.81        71.53024
486.25        70.78243
486.69        70.52448
487.14        73.87245
487.58         73.4503
488.02        72.51761
488.46        71.36715
488.90        71.09023
489.34        72.43169
489.79        73.66386
490.23        72.63307
490.67        72.00167
491.11        71.45184
491.55        71.38168
491.99        71.70932
492.43        71.67966
492.88        71.29067
493.32        71.14353
493.76        71.28172
494.20        71.38025
494.64        71.41202
495.08        71.56557
495.52         71.7479
495.96        71.60637
496.41        71.21647
496.85        71.07706
497.29         71.1095
497.73        71.25728
498.17        70.63223
498.61        70.63895
499.05        70.95168
499.49        71.07072
499.93        70.73651
500.37        70.82641
500.82        71.23554
501.26        71.20907
501.70        70.71205
502.14        71.21314
502.58        70.95435
503.02        71.12702
503.46        71.19479
503.90        71.33963
504.34        71.47498
504.78        71.41777
505.22        71.14999
505.66        70.77965
506.10        70.46685
506.54        70.19416
506.98        69.95156
507.42        70.56304
507.86        70.75928
508.30        70.53915
508.74        70.93047
509.18        70.85159
509.62        70.75038
510.06        70.64759
510.50        70.58565
510.94        70.51253
511.38         70.4398
511.82         70.4298
512.26        70.48492
512.70        70.60104
513.14        70.72667
513.58        70.77037
514.02         70.7148
514.46         70.5843
514.90        70.44544
515.34        70.40917
515.78        70.49654
516.22        70.66291
516.66        70.83437
517.10        70.91566
517.54        70.88239
517.98        70.73424
518.42        70.50205
518.86        70.44591
519.30         70.2459
519.74        70.18266
520.18        70.16183
520.62        70.16334
521.06        70.20215
521.50        70.37399
521.93        70.62676
522.37        70.76827
522.81        70.74895
523.25        70.66803
523.69        70.56719
524.13        70.50661
524.57        70.50185
525.01        70.52498
525.45        70.54248
525.89        70.49953
526.32        70.37789
526.76        70.22794
527.20        70.05338
527.64        69.86364
528.08        69.67441
528.52        69.48161
528.96        69.33985
529.40         69.3339
529.83        69.46576
530.27        69.71442
530.71        69.97272
531.15          70.076
531.59        69.98912
532.03        69.75658
532.46        69.47418
532.90        69.34467
533.34        69.39964
533.78        69.53921
534.22        69.67734
534.66        69.76938
535.09        69.73386
535.53        69.45483
535.97        69.03181
536.41        68.79789
536.85        68.79852
537.28        68.87577
537.72        68.98618
538.16        69.11299
538.60        69.22789
539.04        69.34116
539.47        69.42379
539.91        69.47508
540.35        69.47967
540.79        69.43261
541.22        69.36633
541.66        69.36088
542.10        69.41948
542.54        69.52275
542.97         69.6021
543.41        69.58064
543.85          69.439
544.29        69.22239
544.72        68.98701
545.16        68.85951
545.60        68.85441
546.04        68.93886
546.47        69.08372
546.91        69.24285
547.35        69.38742
547.79        69.50092
548.22        69.55946
548.66        69.58957
549.10        69.62669
549.53        69.46586
549.97         69.1975
550.41        68.96938
550.84        68.86593
551.28        69.02267
551.72        69.33276
552.15        69.44347
552.59        69.34317
553.03         69.1881
553.46         69.2051
553.90         69.1237
554.34        68.98151
554.77        69.00307
555.21        69.26759
555.65        68.82825
556.08        69.31624
556.52        69.40488
556.96        69.50347
557.39        69.49703
557.83        69.39357
558.27        69.11241
558.70        68.72526
559.14        68.56781
559.57        68.62077
560.01        68.62733
560.45        68.60009
560.88        68.75888
561.32        69.06666
561.75        69.29296
562.19        69.38996
562.63         69.2346
563.06        68.92925
563.50        68.87988
563.93        69.01644
564.37        69.09846
564.80        69.10946
565.24        68.95084
565.68        68.51383
566.11        69.18582
566.55        68.50067
566.98        68.32177
567.42        68.07594
567.85        68.31638
568.29        68.94342
568.72        69.21148
569.16         69.1657
569.60        69.43968
570.03        69.44624
570.47        69.64885
570.90        69.88697
571.34        69.17757
571.77         69.3737
572.21        69.47277
572.64        69.80592
573.08        69.94514
573.51         69.3969
573.95        69.16489
574.38        69.38092
574.82        69.48554
