SpectraSmart Spectrum 2.9.0.0
--------- Device Information -----------
Spectrum Name :  反射率_0
Saving Time :  2024/04/26 22:37:11
Spectro-Module Model Name : SE2030-DUVN
Spectro-Module Serial Number : OS361AC55029948
Wavelength Start : 200
Wavelength End : 1025
Wavelength Unit : Wavelength(nm)
Spectrum Unit : Reflectance(%)
-----------Spectrum Setting ------------
Integration Time : 20ms
Average : 10
Boxcar : 0
Background removal :  enabled
linearity correction :  enabled
SC :  disabled
Intensity correction :  disabled
DWT denoise :  enabled
savitzky-golay :  disabled
FFT :  disabled
Running average :  disabled
Kalman :  disabled
High pass :  disabled
---------------BEGIN--------------------
Wavelength(nm)             Reflectance(%)
200.29               0
200.75        49.70619
201.21        51.51855
201.67        53.12225
202.13        53.47708
202.58        52.43534
203.04        50.40794
203.50        47.99437
203.96        47.03557
204.42        48.92091
204.88        53.57187
205.34         59.2432
205.80        62.62174
206.26         62.5979
206.72        59.87075
207.18         56.9833
207.64        56.33017
208.10        58.22722
208.55        63.39684
209.01        69.32148
209.47        67.52898
209.93         57.2561
210.39        45.74966
210.85        38.56045
211.31        37.74311
211.77        43.53599
212.23        60.55678
212.69        105.5023
213.14        180.8752
213.60        176.5242
214.06        122.7062
214.52        86.54684
214.98        70.32745
215.44          63.347
215.90        59.04683
216.36        56.70817
216.81        56.36369
217.27         58.2622
217.73        64.38595
218.19        73.30274
218.65        75.26595
219.11        67.92813
219.57        57.74182
220.02        51.50744
220.48         53.1007
220.94        62.02835
221.40        79.17649
221.86        103.6733
222.32        118.5713
222.77        109.9652
223.23         89.8414
223.69        70.27432
224.15        57.62886
224.61        50.74854
225.06         46.5477
225.52        44.47953
225.98        43.96188
226.44        44.47992
226.90        46.11523
227.36        47.74933
227.81        47.44334
228.27        45.13896
228.73         41.4971
229.19        38.14327
229.65        36.92466
230.10        37.88594
230.56        40.44018
231.02        43.13483
231.48        43.69111
231.93        41.77419
232.39         38.5335
232.85         35.5536
233.31        34.88524
233.77         36.6679
234.22        40.17209
234.68        43.98141
235.14         45.9735
235.60        45.54366
236.05        43.24373
236.51        40.11913
236.97        38.42286
237.43        39.11228
237.88        41.66716
238.34        45.05971
238.80        47.79733
239.26        49.43244
239.71        50.69604
240.17        51.85885
240.63        54.03661
241.08        57.96191
241.54        62.82445
242.00        68.79284
242.46        76.89973
242.91        88.92448
243.37        106.7334
243.83        131.3777
244.28        153.9767
244.74        158.9261
245.20        143.9309
245.66        122.3366
246.11        107.1934
246.57        99.62798
247.03        96.21429
247.48         93.5274
247.94        87.05686
248.40        78.71245
248.85         71.7868
249.31         67.5221
249.77        65.68836
250.22        65.61552
250.68        66.51176
251.14        69.09081
251.59        74.29002
252.05        80.98438
252.51        87.98842
252.96        91.20789
253.42        88.02865
253.88        80.06413
254.33        69.46888
254.79        61.35049
255.25        59.69241
255.70        63.77781
256.16        71.60292
256.62        78.88097
257.07        79.30618
257.53        74.26242
257.99        67.58743
258.44        62.05068
258.90        60.07901
259.35        60.52847
259.81        62.34428
260.27        64.11304
260.72        64.23941
261.18         62.8912
261.63        60.57151
262.09        58.35902
262.55        56.83154
263.00        55.89026
263.46        55.37995
263.91        54.69006
264.37        53.38668
264.83        51.48105
265.28        49.25487
265.74        47.31411
266.19        46.09784
266.65        45.68834
267.11        45.76091
267.56        45.99834
268.02        45.91181
268.47        45.34719
268.93        44.49524
269.38        43.40243
269.84        42.19869
270.30        40.94904
270.75        39.60763
271.21        38.36232
271.66        37.44824
272.12        36.89462
272.57        36.61901
273.03        36.39235
273.48        35.82267
273.94        34.88566
274.39         33.6938
274.85        32.51749
275.31        31.60113
275.76        30.97661
276.22        30.57793
276.67        30.27293
277.13        29.95956
277.58        29.55464
278.04        29.11702
278.49        28.62914
278.95        28.16876
279.40        27.70295
279.86        27.26901
280.31        26.78781
280.77        26.24768
281.22        25.62772
281.68        25.00514
282.13         24.4347
282.59         24.0564
283.04        23.85697
283.50        23.81097
283.95        23.82524
284.41        23.76022
284.86        23.58454
285.32        23.36466
285.77        23.16327
286.22        23.12406
286.68        23.26239
287.13        23.48531
287.59        23.73276
288.04        23.87577
288.50        23.90001
288.95        23.82874
289.41        23.69799
289.86        23.50033
290.32        23.29101
290.77         23.0713
291.22        22.92123
291.68        22.94566
292.13        23.15927
292.59         23.5578
293.04        24.08624
293.50        24.66612
293.95        25.26204
294.40        25.89539
294.86        26.59315
295.31        27.39208
295.77        28.30395
296.22         29.2971
296.68        30.34585
297.13        31.40375
297.58        32.46719
298.04        33.55263
298.49        34.68647
298.95        35.92244
299.40        37.25946
299.85        38.68678
300.31        40.15915
300.76         41.5934
301.21        42.98072
301.67        44.35679
302.12        45.75693
302.58        47.30725
303.03        48.98321
303.48        50.76102
303.94        52.57559
304.39        54.27938
304.84        55.87389
305.30        57.42307
305.75        58.96172
306.20        60.61745
306.66        62.42334
307.11            64.3
307.57        66.20805
308.02        68.00118
308.47        69.66606
308.93          71.245
309.38        72.76935
309.83        74.38944
310.29        76.13818
310.74        77.96426
311.19         79.7557
311.65        81.30231
312.10        82.53078
312.55        83.49274
313.00        84.34811
313.46        85.36035
313.91        86.57343
314.36        87.93809
314.82        89.29452
315.27        90.39148
315.72        91.14268
316.18        91.64819
316.63        92.03076
317.08         92.5322
317.53        93.21739
317.99        93.99934
318.44        94.78656
318.89        95.40108
319.35        95.78899
319.80        96.01985
320.25        96.16513
320.70        96.33587
321.16        96.57298
321.61        96.88476
322.06        97.23344
322.51        97.56687
322.97        97.85482
323.42        98.11367
323.87        98.41763
324.32        98.90578
324.78        99.55779
325.23        100.3966
325.68        101.1646
326.13        101.4521
326.59        101.1804
327.04        100.5051
327.49        99.78164
327.94        99.60349
328.39        100.1125
328.85        101.1111
329.30        102.3758
329.75        103.2479
330.20          103.51
330.66        103.3217
331.11        102.9834
331.56        102.9118
332.01        103.2447
332.46        103.8219
332.92        104.4535
333.37        104.9862
333.82        105.2855
334.27         105.463
334.72        105.5634
335.17        105.6315
335.63        105.7057
336.08        105.8318
336.53        106.0783
336.98        106.6077
337.43         107.439
337.88        108.4946
338.34        109.6459
338.79        110.7842
339.24        111.7661
339.69        112.6009
340.14        113.1728
340.59        113.3267
341.05        113.1059
341.50        112.5804
341.95         112.021
342.40        111.8405
342.85        112.1465
343.30        112.8353
343.75        113.7377
344.20        114.5503
344.66        115.1552
345.11        115.6154
345.56        115.9471
346.01        116.1856
346.46        116.3708
346.91         116.503
347.36        116.6011
347.81        116.7203
348.26        116.8727
348.72        117.0269
349.17        117.2483
349.62        117.6682
350.07        118.2737
350.52        119.0376
350.97        119.6581
351.42        119.6541
351.87        118.9712
352.32        117.7813
352.77        116.5643
353.22        116.0286
353.67        116.3085
354.13        117.1886
354.58        118.2377
355.03        118.6844
355.48        118.3207
355.93        117.3864
356.38        116.2916
356.83        115.6536
357.28        115.6012
357.73        115.8986
358.18        116.2264
358.63        116.0884
359.08        115.3554
359.53        114.2262
359.98        112.9228
360.43         111.746
360.88         110.789
361.33        109.9609
361.78        109.1974
362.23        108.4111
362.68        107.5852
363.13        106.7794
363.58        106.0253
364.03        105.3456
364.48        104.7348
364.93        104.1574
365.38        103.5941
365.83        103.0326
366.28        102.4652
366.73        101.8981
367.18        101.3095
367.63        100.6623
368.08        99.95666
368.53        99.20985
368.98         98.4724
369.43        97.82136
369.88        97.27418
370.33        96.80819
370.78        96.37711
371.23        95.90921
371.68        95.37641
372.13        94.78374
372.58        94.16215
373.03        93.56091
373.48        92.98464
373.93        92.41763
374.38        91.79896
374.83        91.04085
375.28        90.14617
375.72        89.14671
376.17        88.20604
376.62        87.45376
377.07        86.93424
377.52        86.62572
377.97        86.42226
378.42        86.20521
378.87        85.93266
379.32         85.5145
379.77        85.06651
380.22        85.17009
380.67        85.17346
381.11        85.55614
381.56        85.76386
382.01        85.31458
382.46        84.16447
382.91         82.5741
383.36        81.02802
383.81        80.16434
384.26        80.08531
384.71        80.56915
385.15        81.30936
385.60        81.76451
386.05        81.75337
386.50        81.43243
386.95         80.8988
387.40        80.31258
387.85        79.76019
388.29        79.14306
388.74        78.61945
389.19        78.21951
389.64        77.94059
390.09        77.77055
390.54        77.65278
390.98        77.46136
391.43        77.20895
391.88        76.91948
392.33        76.62297
392.78        76.35408
393.23        76.12385
393.67        75.90786
394.12        75.77057
394.57        75.60541
395.02        75.42707
395.47        75.34702
395.91        75.34998
396.36        75.25905
396.81        75.09019
397.26         74.9461
397.71        74.78797
398.15        74.55389
398.60        74.34113
399.05        73.92341
399.50        73.45246
399.95        73.58403
400.39        74.14743
400.84        74.01372
401.29        73.22646
401.74         72.8251
402.18        72.85256
402.63        72.61185
403.08        72.16337
403.53        71.93396
403.97        71.94164
404.42        72.04826
404.87        72.15972
405.32        72.14679
405.76         71.9693
406.21        71.70111
406.66         71.4223
407.11        71.29261
407.55        71.36877
408.00        71.49326
408.45        71.61037
408.90        71.78433
409.34        71.87505
409.79        71.50943
410.24        70.86304
410.68        70.52844
411.13        70.57339
411.58        70.70423
412.03        70.80704
412.47        70.81241
412.92        70.65784
413.37        70.40501
413.81        70.15131
414.26        70.10397
414.71        70.27155
415.15        70.61824
415.60        71.01348
416.05        71.30795
416.49        71.44652
416.94        71.45969
417.39        71.41071
417.83        71.38664
418.28        71.42077
418.73        71.47951
419.17         71.5463
419.62        71.60272
420.07        71.63186
420.51        71.62185
420.96        71.60347
421.41        71.55338
421.85        71.44849
422.30        71.39513
422.74        71.31278
423.19        71.12887
423.64        70.85519
424.08          70.668
424.53          70.616
424.98        70.72024
425.42        71.00242
425.87        71.42695
426.31        71.86497
426.76         72.1104
427.21        72.10258
427.65         71.7804
428.10         71.2896
428.54        71.08885
428.99        71.28239
429.44        71.38554
429.88        71.45765
430.33         72.1776
430.77        73.15636
431.22        73.48627
431.66        73.15395
432.11        72.58098
432.56        72.04945
433.00        72.18901
433.45        73.04091
433.89        73.47722
434.34        73.00816
434.78        73.90792
435.23        73.68935
435.67        71.61838
436.12        72.19556
436.57        72.24939
437.01        73.02279
437.46        73.34331
437.90        73.20465
438.35        72.66364
438.79        72.80375
439.24        72.80951
439.68        72.95432
440.13         73.4083
440.57        74.04465
441.02        74.05196
441.46        73.55854
441.91        73.96586
442.35        74.92635
442.80        74.90502
443.24          74.061
443.69        74.05233
444.13        74.81213
444.58        75.12757
445.02        74.95828
445.47        74.95118
445.91        75.15477
446.36        75.38252
446.80        75.61617
447.24         75.9173
447.69        76.23397
448.13        76.32349
448.58         76.4229
449.02        76.33013
449.47        76.18539
449.91        76.10229
450.36         76.1141
450.80        76.08012
451.25        76.03942
451.69        76.07685
452.13        76.20377
452.58        76.35666
453.02        76.50018
453.47        76.60782
453.91        76.65309
454.36        76.65479
454.80        76.62256
455.24        76.44865
455.69        76.12587
456.13        75.93152
456.58        76.00407
457.02        75.23724
457.46        75.13055
457.91        75.57982
458.35        75.92873
458.79        75.92306
459.24         75.3734
459.68        74.55235
460.13         73.7308
460.57        73.53651
461.01        74.19868
461.46        73.95244
461.90        74.66099
462.34         75.9232
462.79        75.66012
463.23        75.30765
463.68        75.43303
464.12        75.32231
464.56        75.20214
465.01        74.29785
465.45        72.98239
465.89        72.72483
466.34        73.36321
466.78        73.77806
467.22        73.87277
467.67        73.41129
468.11        73.52953
468.55        73.59471
468.99        73.85132
469.44        73.82867
469.88        73.54484
470.32        73.28238
470.77        73.09944
471.21         73.0568
471.65        73.18042
472.10        73.04288
472.54        73.35518
472.98         73.3718
473.42        73.27766
473.87        73.24384
474.31        73.20198
474.75        72.77235
475.20        72.14954
475.64         72.0858
476.08        72.51271
476.52        72.57665
476.97        72.19019
477.41         72.0193
477.85        72.25813
478.29        71.82089
478.74        72.09684
479.18         73.0221
479.62        72.30656
480.06        72.37099
480.50        72.39054
480.95        72.40026
481.39        72.38829
481.83        72.10094
482.27        71.85246
482.72        72.42857
483.16        71.84399
483.60        71.95814
484.04        72.17857
484.48        72.60393
484.93        72.68058
485.37        72.71918
485.81        71.65649
486.25        70.47014
486.69        69.53793
487.14        72.42622
487.58        73.10915
488.02        72.45698
488.46        70.93606
488.90        71.33915
489.34        72.38725
489.79        73.45958
490.23        72.75602
490.67        72.02321
491.11        71.27219
491.55        71.11797
491.99        71.52235
492.43        71.55011
492.88        71.18923
493.32        71.13164
493.76        71.37996
494.20        71.55585
494.64        71.62935
495.08        71.68187
495.52        71.68553
495.96        71.68745
496.41        71.65826
496.85        71.40715
497.29        70.95546
497.73        70.99106
498.17        70.63907
498.61        70.79317
499.05        71.09299
499.49        71.29126
499.93         71.1007
500.37        71.18947
500.82        71.47482
501.26        71.23196
501.70        71.08981
502.14        71.09512
502.58        71.39622
503.02        71.55872
503.46        71.56074
503.90        71.63854
504.34        71.74644
504.78         71.6946
505.22        71.44977
505.66        71.15891
506.10        70.94859
506.54        70.71311
506.98        70.42124
507.42        71.18327
507.86        71.05793
508.30        71.11592
508.74        71.32333
509.18        71.30589
509.62        71.22656
510.06        71.10098
510.50        70.96993
510.94        70.80032
511.38        70.64305
511.82        70.59653
512.26        70.67434
512.70         70.8546
513.14         71.0667
513.58        71.18929
514.02        71.19128
514.46        71.10365
514.90          70.983
515.34        70.93021
515.78        70.97205
516.22        71.05045
516.66        71.14957
517.10        71.21195
517.54        71.23974
517.98        71.17402
518.42        71.01033
518.86        71.17527
519.30         70.9854
519.74        70.98033
520.18        70.96507
520.62        71.00364
521.06        71.10029
521.50         71.2077
521.93        71.27196
522.37        71.45526
522.81        71.28665
523.25        71.16216
523.69        71.03175
524.13        71.05004
524.57        71.22908
525.01        71.51144
525.45        71.78989
525.89        71.87901
526.32        71.73285
526.76        71.44302
527.20        71.07834
527.64        70.76288
528.08        70.54787
528.52        70.36823
528.96        70.25877
529.40        70.34489
529.83        70.57853
530.27        70.78746
530.71        70.90463
531.15        70.97035
531.59        70.96287
532.03        70.81076
532.46        70.57056
532.90        70.43256
533.34         70.4193
533.78        70.44247
534.22        70.44957
534.66        70.44569
535.09        70.36378
535.53        70.07629
535.97        69.66987
536.41        69.45571
536.85         69.4736
537.28        69.57465
537.72         69.7192
538.16        69.89693
538.60        70.07524
539.04        70.24801
539.47        70.38499
539.91        70.48767
540.35          70.538
540.79        70.53682
541.22        70.48788
541.66        70.42635
542.10        70.35737
542.54        70.27953
542.97        70.19435
543.41        70.13531
543.85        70.09706
544.29        70.08282
544.72         70.0655
545.16        70.04302
545.60        70.00329
546.04         69.9603
546.47         69.9369
546.91        69.98396
547.35        70.10576
547.79        70.22269
548.22        70.31301
548.66         70.4752
549.10        70.70102
549.53        70.63684
549.97        70.36021
550.41        70.12611
550.84        70.02502
551.28        70.10968
551.72        70.31255
552.15        70.38518
552.59        70.33147
553.03        70.17514
553.46        70.43692
553.90        70.17108
554.34        70.27313
554.77        70.18599
555.21        70.16369
555.65        70.14349
556.08        70.22844
556.52        70.26862
556.96        70.25962
557.39        70.34402
557.83        70.46126
558.27        70.21918
558.70        69.71761
559.14        69.54808
559.57        69.69511
560.01        69.76039
560.45        69.73096
560.88        69.83133
561.32        70.05469
561.75        70.22982
562.19        70.32319
562.63        70.23603
563.06        70.02528
563.50        69.92868
563.93        69.90588
564.37        69.95003
564.80        70.03635
565.24         69.8711
565.68        69.35701
566.11        70.01267
566.55        69.33678
566.98        69.21939
567.42        69.05195
567.85        69.20229
568.29        69.63194
568.72        69.96812
569.16        70.20606
569.60        70.41454
570.03        70.26011
570.47        70.27492
570.90        70.44009
571.34        69.50652
571.77        69.84312
572.21        70.13453
572.64        69.73747
573.08        70.55276
573.51        70.04128
573.95        69.82969
574.38        69.62456
574.82        69.67861
