SpectraSmart Spectrum 2.9.0.0
--------- Device Information -----------
Spectrum Name :  反射率_0
Saving Time :  2024/04/26 22:40:47
Spectro-Module Model Name : SE2030-DUVN
Spectro-Module Serial Number : OS361AC55029948
Wavelength Start : 200
Wavelength End : 1025
Wavelength Unit : Wavelength(nm)
Spectrum Unit : Reflectance(%)
-----------Spectrum Setting ------------
Integration Time : 20ms
Average : 10
Boxcar : 0
Background removal :  enabled
linearity correction :  enabled
SC :  disabled
Intensity correction :  disabled
DWT denoise :  enabled
savitzky-golay :  disabled
FFT :  disabled
Running average :  disabled
Kalman :  disabled
High pass :  disabled
---------------BEGIN--------------------
Wavelength(nm)             Reflectance(%)
200.29               0
200.75        44.81442
201.21        43.08543
201.67        42.46495
202.13        42.99751
202.58        44.55379
203.04        47.79531
203.50         52.8917
203.96        58.60197
204.42        63.45404
204.88        66.75586
205.34        67.76894
205.80        66.67069
206.26        63.94696
206.72        59.84764
207.18        55.43879
207.64        50.97569
208.10        45.92233
208.55        39.78239
209.01        31.86609
209.47        25.96443
209.93        25.70624
210.39        29.13137
210.85        33.23613
211.31        37.06273
211.77        41.83577
212.23        50.66851
212.69        72.58682
213.14        116.5045
213.60        127.1081
214.06        105.5093
214.52        87.13411
214.98         77.0964
215.44        70.89668
215.90        65.09155
216.36        60.45333
216.81        58.83116
217.27        61.14446
217.73        68.80509
218.19        80.23328
218.65        84.07172
219.11        76.51943
219.57        65.12405
220.02        57.42683
220.48        57.25791
220.94        63.76545
221.40         77.3924
221.86        96.81996
222.32        107.1213
222.77        97.26991
223.23        78.14194
223.69        61.07633
224.15        51.93381
224.61        48.83461
225.06        48.43111
225.52        48.90417
225.98         48.2637
226.44         46.2924
226.90        43.80467
227.36        41.19126
227.81          39.164
228.27        38.10392
228.73        37.46386
229.19        37.34948
229.65        37.94435
230.10        39.09721
230.56        40.82875
231.02        42.24274
231.48        41.91413
231.93        39.78778
232.39        36.71225
232.85         33.9853
233.31        33.33368
233.77        34.85557
234.22        37.96042
234.68         41.5082
235.14        43.78776
235.60        44.29512
236.05        43.50482
236.51        42.05774
236.97        41.33916
237.43        41.95069
237.88        43.50606
238.34         45.5838
238.80        47.77025
239.26         50.0386
239.71        53.14936
240.17        56.98582
240.63        61.13592
241.08        65.25325
241.54        68.39727
242.00        71.87922
242.46        79.28259
242.91        93.78564
243.37        118.0992
243.83         152.651
244.28        181.0103
244.74        179.6615
245.20        149.1277
245.66        112.7641
246.11        91.01487
246.57        84.31345
247.03        86.63507
247.48        91.83936
247.94         90.1732
248.40        82.09927
248.85        73.19305
249.31        66.76978
249.77        63.91399
250.22          63.971
250.68        65.98291
251.14        69.36898
251.59        72.06969
252.05        72.74277
252.51        72.37634
252.96        71.01595
253.42        69.25636
253.88        67.25969
254.33        64.63551
254.79        63.07063
255.25        63.52504
255.70        65.66367
256.16        69.18188
256.62        71.87798
257.07        70.65765
257.53        66.82048
257.99        62.24597
258.44        58.64981
258.90        57.82635
259.35        58.72348
259.81        60.66335
260.27        62.21726
260.72           61.71
261.18        59.48823
261.63        56.24236
262.09        53.28728
262.55        51.48272
263.00        50.69847
263.46        50.59034
263.91        50.44675
264.37        49.66654
264.83        48.19198
265.28        46.33939
265.74        44.64287
266.19        43.46055
266.65        42.89249
267.11        42.65963
267.56        42.56705
268.02        42.33043
268.47        41.84934
268.93        41.24964
269.38        40.49887
269.84        39.59684
270.30        38.55794
270.75         37.3633
271.21        36.20442
271.66         35.3229
272.12         34.7635
272.57        34.45737
273.03        34.17873
273.48        33.54999
273.94        32.56396
274.39         31.3352
274.85        30.19477
275.31        29.47604
275.76        29.19352
276.22        29.22225
276.67        29.30499
277.13        29.15718
277.58        28.67472
278.04         27.9921
278.49        27.20116
278.95         26.5363
279.40        26.01691
279.86        25.63905
280.31        25.29024
280.77         24.9055
281.22        24.44085
281.68        23.97357
282.13        23.56947
282.59         23.3813
283.04        23.39062
283.50        23.55949
283.95        23.73944
284.41        23.70612
284.86        23.42411
285.32         23.0022
285.77        22.59518
286.22        22.47322
286.68        22.67642
287.13        23.07564
287.59        23.54507
288.04        23.85291
288.50        23.95419
288.95        23.89816
289.41        23.76678
289.86        23.61868
290.32         23.5234
290.77        23.46393
291.22         23.4699
291.68        23.57441
292.13        23.78807
292.59        24.13801
293.04        24.65311
293.50         25.3816
293.95        26.31103
294.40        27.42227
294.86        28.64251
295.31        29.85219
295.77        31.02686
296.22        32.17777
296.68        33.37463
297.13        34.71814
297.58        36.24145
298.04        37.91901
298.49        39.68285
298.95        41.44223
299.40        43.15852
299.85        44.85866
300.31        46.59996
300.76        48.45209
301.21        50.42761
301.67        52.50299
302.12        54.57716
302.58        56.58219
303.03        58.46131
303.48        60.27876
303.94        62.10321
304.39        63.97517
304.84        65.93382
305.30        67.95455
305.75        69.99297
306.20        72.06959
306.66        74.17558
307.11        76.26757
307.57        78.26819
308.02        79.95477
308.47        81.33201
308.93        82.46817
309.38        83.53209
309.83         84.9008
310.29        86.64209
310.74        88.63941
311.19        90.61435
311.65        92.07816
312.10        92.89935
312.55        93.23141
313.00        93.39375
313.46        93.88517
313.91        94.79974
314.36          96.006
314.82        97.25668
315.27        98.16532
315.72        98.60751
316.18        98.75137
316.63        98.74646
317.08        98.86494
317.53         99.1955
317.99        99.63914
318.44         100.151
318.89        100.6357
319.35        101.0447
319.80         101.413
320.25        101.7357
320.70        101.9992
321.16        102.2039
321.61        102.3884
322.06         102.541
322.51        102.6618
322.97        102.7496
323.42        102.8139
323.87        102.9505
324.32        103.3331
324.78        103.9467
325.23        104.8149
325.68         105.659
326.13        106.0251
326.59        105.8114
327.04        105.1732
327.49        104.4612
327.94        104.2698
328.39        104.7419
328.85        105.6765
329.30         106.853
329.75        107.6149
330.20        107.7543
330.66        107.4357
331.11        106.9902
331.56        106.8734
332.01        107.2293
332.46        107.8906
332.92        108.6211
333.37        109.1909
333.82        109.4432
334.27        109.5118
334.72        109.4922
335.17        109.5154
335.63        109.6432
336.08        109.8954
336.53        110.3004
336.98        110.9576
337.43        111.8606
337.88        112.9426
338.34        114.0894
338.79        115.2224
339.24        116.2057
339.69        117.0423
340.14        117.5959
340.59        117.6799
341.05        117.3434
341.50        116.6803
341.95        116.0104
342.40         115.817
342.85        116.2176
343.30        117.0767
343.75        118.1845
344.20        119.1676
344.66        119.8819
345.11        120.4126
345.56        120.7663
346.01        120.9681
346.46        121.0677
346.91        121.0633
347.36        121.0383
347.81        121.1505
348.26        121.4257
348.72        121.8076
349.17        122.2623
349.62        122.7604
350.07        123.2574
350.52        123.7746
350.97        124.1207
351.42        123.9973
351.87        123.3888
352.32        122.4001
352.77        121.4094
353.22        120.9742
353.67        121.1934
354.13        121.9067
354.58        122.7381
355.03        123.0082
355.48        122.5414
355.93        121.5381
356.38        120.4041
356.83        119.7529
357.28        119.7015
357.73        120.0269
358.18        120.3603
358.63        120.1192
359.08        119.1722
359.53        117.7517
359.98        116.1747
360.43        114.8867
360.88        114.0033
361.33        113.3802
361.78         112.867
362.23        112.2349
362.68        111.4245
363.13        110.5386
363.58        109.6436
364.03        108.8205
364.48         108.084
364.93          107.37
365.38        106.6736
365.83        106.0106
366.28        105.3769
366.73        104.7867
367.18        104.1678
367.63        103.3957
368.08        102.4623
368.53        101.4129
368.98        100.3858
369.43        99.60019
369.88        99.09881
370.33        98.80865
370.78         98.5872
371.23        98.20078
371.68        97.57603
372.13        96.77295
372.58         95.8873
373.03        95.07211
373.48        94.37228
373.93        93.74198
374.38        93.11804
374.83        92.40989
375.28        91.60568
375.72        90.73267
376.17        89.92075
376.62        89.24463
377.07        88.73045
377.52        88.36381
377.97        88.06416
378.42        87.71768
378.87        87.29266
379.32        86.78703
379.77        86.32907
380.22        86.10621
380.67        86.12455
381.11        86.35735
381.56        86.48196
382.01        86.06212
382.46        85.06017
382.91        83.68637
383.36        82.36713
383.81        81.68402
384.26        81.71577
384.71        82.25184
385.15        82.97037
385.60        83.31081
386.05        83.10101
386.50        82.50889
386.95         81.6899
387.40        80.89411
387.85        80.22796
388.29        79.57526
388.74        79.04327
389.19        78.57513
389.64        78.15754
390.09        77.81846
390.54        77.53761
390.98        77.24673
391.43         76.9659
391.88        76.68832
392.33        76.45049
392.78        76.22598
393.23        75.99769
393.67        75.95066
394.12        76.06763
394.57        75.60432
395.02        74.91429
395.47        75.00833
395.91        75.76522
396.36        75.87009
396.81        75.26945
397.26         74.6992
397.71        74.27245
398.15        73.89991
398.60        73.72274
399.05        73.50573
399.50        73.28074
399.95        73.59166
400.39        74.24067
400.84        73.96131
401.29        72.90815
401.74        72.68158
402.18         73.2046
402.63        72.90314
403.08        71.90768
403.53        71.49214
403.97        71.70378
404.42        71.92908
404.87        72.03693
405.32        72.00198
405.76         71.7606
406.21          71.501
406.66        71.27833
407.11        70.86952
407.55        70.48769
408.00        70.78484
408.45        71.59408
408.90        71.98626
409.34         71.7574
409.79        71.16542
410.24        70.47657
410.68        70.10965
411.13        70.15461
411.58          70.391
412.03        70.63928
412.47        70.68456
412.92        70.43653
413.37        70.00539
413.81        69.56041
414.26        69.41162
414.71        69.58872
415.15        70.01871
415.60        70.52958
416.05        70.90069
416.49        71.04922
416.94        71.02839
417.39        70.92236
417.83        70.84825
418.28         70.8523
418.73        70.89286
419.17        70.94796
419.62        70.99296
420.07        71.00517
420.51        70.97617
420.96        70.95269
421.41        70.90627
421.85        70.81765
422.30        70.86559
422.74        70.92004
423.19        70.70002
423.64          70.262
424.08        70.09151
424.53        70.26862
424.98        70.50631
425.42         70.7908
425.87         71.4931
426.31        72.34356
426.76        72.26427
427.21        71.42474
427.65        71.15527
428.10        71.47917
428.54        71.53172
428.99        71.37832
429.44        71.24211
429.88        71.29253
430.33        72.10259
430.77        73.28979
431.22        73.88287
431.66        73.75095
432.11        73.31352
432.56        72.81625
433.00        72.48592
433.45        72.54836
433.89        73.17808
434.34        73.77801
434.78        74.57503
435.23        73.92485
435.67        72.19225
436.12        72.35659
436.57        72.60052
437.01        73.58582
437.46        73.91676
437.90        73.53336
438.35         73.1254
438.79        73.09415
439.24        73.12556
439.68        73.27402
440.13        73.79739
440.57         74.5275
441.02        74.45009
441.46        73.74374
441.91         74.1566
442.35        75.27688
442.80        75.13013
443.24        73.95225
443.69         73.9033
444.13        74.90668
444.58        75.37413
445.02        75.25309
445.47        75.35913
445.91        75.69863
446.36        76.11565
446.80        76.26821
447.24        76.50795
447.69        76.73156
448.13        76.72549
448.58         76.8074
449.02        76.73243
449.47        76.63651
449.91        76.54607
450.36        76.50691
450.80         76.4835
451.25        76.52032
451.69        76.62717
452.13        76.81223
452.58        77.05873
453.02        77.29676
453.47         77.4229
453.91        77.40055
454.36        77.26584
454.80        77.07539
455.24        76.82909
455.69        76.53612
456.13        76.42242
456.58        76.54112
457.02         75.9549
457.46        75.38464
457.91        76.00569
458.35        76.35189
458.79        76.38228
459.24        75.70815
459.68         74.8663
460.13        74.15134
460.57        73.89069
461.01        74.24274
461.46        74.67059
461.90        74.85899
462.34        76.44539
462.79        75.58557
463.23        75.88908
463.68        76.11024
464.12        75.95688
464.56        75.42568
465.01        74.47662
465.45        73.91299
465.89        73.72474
466.34        73.91759
466.78        74.30343
467.22        74.84809
467.67        73.59896
468.11        73.69296
468.55        73.77695
468.99        74.56379
469.44        74.75896
469.88        74.32334
470.32        73.94981
470.77        73.74663
471.21        73.62685
471.65        73.61361
472.10        73.74093
472.54        73.90545
472.98        73.93665
473.42        73.80401
473.87        73.61243
474.31        73.35165
474.75        73.03011
475.20        72.79693
475.64        72.50491
476.08        72.94848
476.52        72.94707
476.97        72.67081
477.41         72.6418
477.85        72.99446
478.29        72.31091
478.74        72.67205
479.18        73.07996
479.62        73.14626
480.06        73.21754
480.50        72.96679
480.95         72.8149
481.39        72.86075
481.83        72.32302
482.27        72.19358
482.72        73.08694
483.16        72.67547
483.60        72.72924
484.04        73.05956
484.48        73.23035
484.93        72.98709
485.37        73.15568
485.81         72.2431
486.25        71.27215
486.69        71.08339
487.14        73.50365
487.58        73.56319
488.02        72.90347
488.46        71.59262
488.90        71.69918
489.34        73.28201
489.79        74.25416
490.23         73.6544
490.67        72.91377
491.11        72.16593
491.55        71.89725
491.99        72.09801
492.43        71.99802
492.88        71.61095
493.32        71.59145
493.76        71.91454
494.20        72.14839
494.64        72.24615
495.08        72.33296
495.52        72.39745
495.96        72.44073
496.41        72.45805
496.85        72.39294
497.29        72.19031
497.73        72.27883
498.17        71.76235
498.61        71.78245
499.05        71.99446
499.49        72.00068
499.93        71.59303
500.37        71.64966
500.82         72.0315
501.26         72.0768
501.70        71.81022
502.14        71.77665
502.58         71.9957
503.02        72.15001
503.46        72.23152
503.90        72.33179
504.34        72.52486
504.78        72.50223
505.22        72.28725
505.66        71.94781
506.10        71.61421
506.54         71.3972
506.98        71.32085
507.42        71.51082
507.86        71.93508
508.30        71.62361
508.74        71.98512
509.18        71.88982
509.62        71.79833
510.06           71.72
510.50        71.68326
510.94        71.65657
511.38        71.62585
511.82        71.61314
512.26        71.61865
512.70        71.64773
513.14          71.701
513.58        71.77354
514.02        71.85857
514.46        71.94535
514.90        72.02776
515.34        72.10023
515.78         72.1542
516.22        72.18607
516.66         72.1779
517.10        72.10305
517.54        71.96629
517.98        71.78919
518.42        71.60777
518.86        71.47747
519.30        71.41586
519.74        71.40697
520.18        71.44561
520.62        71.51852
521.06        71.61478
521.50        71.74012
521.93        71.86266
522.37        71.90849
522.81        71.87495
523.25        71.77295
523.69         71.6636
524.13        71.64874
524.57        71.74112
525.01        71.89996
525.45        72.05456
525.89        72.08829
526.32         71.9691
526.76        71.76704
527.20        71.52222
527.64        71.30261
528.08        71.14017
528.52        71.01313
528.96        70.95618
529.40        71.02303
529.83        71.20405
530.27        71.48589
530.71        71.76678
531.15        71.88982
531.59        71.82076
532.03         71.5984
532.46        71.30794
532.90        71.14049
533.34          71.127
533.78        71.17306
534.22        71.21279
534.66         71.2312
535.09        71.15428
535.53        70.86226
535.97        70.43467
536.41         70.1748
536.85        70.12381
537.28        70.13021
537.72        70.18748
538.16        70.33935
538.60        70.56233
539.04        70.83887
539.47         71.0829
539.91        71.20907
540.35        71.18494
540.79        71.03667
541.22        70.84078
541.66        70.74819
542.10        70.78612
542.54        70.91435
542.97        71.05061
543.41          71.099
543.85        71.02464
544.29        70.87132
544.72        70.68938
545.16        70.59557
545.60        70.60616
546.04        70.69749
546.47         70.8247
546.91        70.93847
547.35        71.01791
547.79        70.99553
548.22        70.91705
548.66        71.03429
549.10         71.3353
549.53        71.31323
549.97          71.013
550.41        70.76196
550.84         70.6665
551.28        70.65265
551.72        70.66226
552.15        70.77938
552.59        71.07915
553.03        70.50378
553.46        71.14748
553.90        71.10154
554.34        70.97408
554.77         70.8028
555.21        70.70158
555.65        70.60214
556.08        70.87827
556.52        70.96501
556.96        70.93794
557.39        71.00033
557.83        71.11197
558.27        70.90384
558.70        70.45547
559.14        70.28072
559.57        70.35963
560.01          70.368
560.45        70.32038
560.88         70.3915
561.32        70.59723
561.75        70.92148
562.19        71.26808
562.63         71.2029
563.06        70.81846
563.50        70.77447
563.93        70.99312
564.37        71.01549
564.80        70.87365
565.24        70.72384
565.68        70.41756
566.11        71.13541
566.55        70.33041
566.98         70.0453
567.42        69.71706
567.85        69.91764
568.29        70.56534
568.72        70.87347
569.16        70.84222
569.60        71.25064
570.03        71.13368
570.47         71.2631
570.90         71.4426
571.34        70.70964
571.77         71.2607
572.21        71.62276
572.64        71.26437
573.08        72.00037
573.51        70.96146
573.95         70.8708
574.38        71.18919
574.82        71.14141
