SpectraSmart Spectrum 2.9.0.0
--------- Device Information -----------
Spectrum Name :  反射率_0
Saving Time :  2024/04/26 22:35:03
Spectro-Module Model Name : SE2030-DUVN
Spectro-Module Serial Number : OS361AC55029948
Wavelength Start : 200
Wavelength End : 1025
Wavelength Unit : Wavelength(nm)
Spectrum Unit : Reflectance(%)
-----------Spectrum Setting ------------
Integration Time : 20ms
Average : 10
Boxcar : 0
Background removal :  enabled
linearity correction :  enabled
SC :  disabled
Intensity correction :  disabled
DWT denoise :  enabled
savitzky-golay :  disabled
FFT :  disabled
Running average :  disabled
Kalman :  disabled
High pass :  disabled
---------------BEGIN--------------------
Wavelength(nm)             Reflectance(%)
200.29               0
200.75           60.24
201.21        53.21843
201.67        47.91687
202.13        45.76555
202.58        46.52439
203.04        50.20719
203.50         56.5778
203.96        63.24209
204.42        67.91685
204.88        70.30115
205.34        70.03747
205.80        68.03321
206.26        65.12245
206.72        61.22022
207.18        57.37888
207.64        54.03816
208.10        50.88617
208.55        48.05566
209.01        44.97071
209.47         42.8275
209.93        43.00665
210.39         44.6471
210.85        47.33508
211.31        52.06886
211.77        60.84829
212.23        79.54398
212.69        124.8098
213.14        198.8985
213.60        192.6727
214.06        137.9685
214.52        101.6219
214.98        85.40174
215.44        78.34932
215.90        73.87058
216.36        71.47193
216.81        71.37173
217.27        73.84429
217.73        81.35478
218.19        91.03347
218.65        89.26545
219.11        75.11115
219.57        58.91315
220.02        49.84951
220.48        52.44077
220.94          66.024
221.40         92.3354
221.86        130.7524
222.32        156.6496
222.77        147.9052
223.23        120.5244
223.69         92.4998
224.15        73.93803
224.61        63.57183
225.06        57.10247
225.52        53.49781
225.98        51.65411
226.44        50.92266
226.90        51.49165
227.36        52.62904
227.81        52.95337
228.27        52.29002
228.73        50.81264
229.19        49.34153
229.65        48.92286
230.10         49.5525
230.56        50.88916
231.02        52.07385
231.48        51.80148
231.93        49.97249
232.39        47.50934
232.85        45.31953
233.31         44.6027
233.77        45.43535
234.22        47.32729
234.68        49.70039
235.14        51.77958
235.60        53.28245
236.05        54.55221
236.51        55.42948
236.97        55.61435
237.43        55.13559
237.88        54.06185
238.34        53.16621
238.80        54.11687
239.26        57.64427
239.71        64.36618
240.17        73.79153
240.63        83.46729
241.08        91.40844
241.54        96.74131
242.00        100.8483
242.46        108.1849
242.91        122.6315
243.37        145.4529
243.83        178.4101
244.28        210.8137
244.74        221.5711
245.20        207.6277
245.66        182.8903
246.11        161.3801
246.57        145.3684
247.03         131.459
247.48        118.5999
247.94         107.947
248.40        101.4663
248.85        98.73632
249.31        98.53668
249.77        98.89011
250.22        99.20583
250.68        99.15716
251.14         99.2041
251.59        100.5577
252.05         103.187
252.51        106.4352
252.96        106.9345
253.42        102.5133
253.88        94.32648
254.33        84.23747
254.79        76.67349
255.25         74.7494
255.70        77.75733
256.16        84.03803
256.62        89.90224
257.07          89.992
257.53        85.60645
257.99        79.85915
258.44        75.02927
258.90        73.38251
259.35        73.74358
259.81        75.26384
260.27         76.6079
260.72        76.28426
261.18        74.58403
261.63        71.98186
262.09        69.54881
262.55        67.75945
263.00        66.51701
263.46        65.72703
263.91        64.88621
264.37        63.77718
264.83        62.33795
265.28        60.68589
265.74        59.24541
266.19        58.16626
266.65        57.52552
267.11        57.11125
267.56        56.71069
268.02         56.0198
268.47        54.96975
268.93        53.71253
269.38        52.35135
269.84        51.10677
270.30        50.02254
270.75         49.0173
271.21        48.12243
271.66        47.31388
272.12        46.57145
272.57        45.87503
273.03        45.13564
273.48        44.19344
273.94        43.09861
274.39        41.88311
274.85        40.74059
275.31        39.78579
275.76        39.01472
276.22        38.41538
276.67        37.89341
277.13         37.4183
277.58         36.9071
278.04        36.40025
278.49        35.82378
278.95        35.19809
279.40        34.48348
279.86        33.76531
280.31        33.02257
280.77        32.34208
281.22        31.70557
281.68        31.16252
282.13        30.70177
282.59        30.39787
283.04        30.20968
283.50        30.13046
283.95        30.09613
284.41        30.01918
284.86        29.87903
285.32        29.73967
285.77        29.60933
286.22        29.56879
286.68        29.63427
287.13        29.72948
287.59         29.8873
288.04        30.11117
288.50        30.39515
288.95        30.68999
289.41        30.91072
289.86        30.85813
290.32        30.56959
290.77        30.12421
291.22        29.70254
291.68        29.55337
292.13        29.73703
292.59         30.2128
293.04        30.92663
293.50        31.80097
293.95         32.7845
294.40        33.90684
294.86        35.13468
295.31        36.40028
295.77        37.69768
296.22         39.0096
296.68         40.3904
297.13        41.92179
297.58        43.62611
298.04        45.47709
298.49        47.40828
298.95        49.33253
299.40        51.20732
299.85        53.06153
300.31        54.92945
300.76        56.84145
301.21        58.81427
301.67         60.8415
302.12        62.87622
302.58        64.94463
303.03        66.99304
303.48        69.05291
303.94        71.12587
304.39         73.1376
304.84        75.11497
305.30         77.0831
305.75        79.04141
306.20        81.09008
306.66          83.243
307.11        85.41358
307.57        87.53266
308.02        89.37691
308.47        90.94044
308.93        92.29768
309.38        93.54225
309.83        94.94739
310.29        96.57154
310.74        98.32484
311.19        100.0462
311.65        101.4392
312.10        102.4086
312.55        103.0482
313.00        103.5449
313.46        104.1929
313.91        105.0464
314.36        106.0518
314.82        107.0735
315.27        107.9115
315.72        108.4868
316.18        108.8904
316.63        109.2017
317.08        109.5967
317.53        110.1231
317.99        110.7126
318.44        111.2962
318.89        111.7335
319.35         111.984
319.80        112.0998
320.25        112.1591
320.70         112.286
321.16        112.5149
321.61        112.8571
322.06        113.2324
322.51        113.5177
322.97        113.6714
323.42        113.7357
323.87         113.845
324.32        114.2417
324.78        114.9236
325.23        115.8879
325.68        116.8216
326.13        117.2205
326.59        116.9716
327.04        116.2646
327.49        115.4671
327.94        115.1969
328.39         115.612
328.85        116.4979
329.30        117.6772
329.75         118.544
330.20        118.8892
330.66        118.8484
331.11        118.6821
331.56        118.7264
332.01        119.0958
332.46        119.6534
332.92        120.2051
333.37        120.6193
333.82        120.7764
334.27        120.7944
334.72        120.7771
335.17        120.8648
335.63         121.109
336.08        121.5318
336.53        122.1283
336.98        122.9418
337.43        123.9445
337.88        125.0748
338.34        126.2176
338.79        127.3156
339.24        128.2428
339.69        129.0061
340.14        129.4927
340.59        129.5528
341.05        129.2477
341.50         128.662
341.95         128.106
342.40        128.0434
342.85        128.5815
343.30        129.5869
343.75        130.8299
344.20        131.9071
344.66         132.666
345.11        133.1916
345.56        133.5184
346.01        133.7208
346.46        133.8589
346.91        133.9209
347.36        133.9524
347.81        134.0515
348.26         134.235
348.72        134.4688
349.17        134.7713
349.62        135.1972
350.07        135.7214
350.52        136.3437
350.97        136.8141
351.42        136.7384
351.87        136.0806
352.32        134.9773
352.77        133.8726
353.22        133.4206
353.67        133.7391
354.13        134.6337
354.58        135.6662
355.03        136.0505
355.48         135.578
355.93        134.4756
356.38        133.2117
356.83        132.4929
357.28        132.4583
357.73        132.8609
358.18         133.264
358.63        132.9785
359.08        131.8529
359.53         130.155
359.98        128.3006
360.43        126.8783
360.88        126.0282
361.33         125.566
361.78        125.2212
362.23        124.5748
362.68        123.5303
363.13        122.2508
363.58        120.9493
364.03        119.9315
364.48        119.2589
364.93        118.7985
365.38        118.3927
365.83        117.8107
366.28        116.9881
366.73        116.0157
367.18        114.9729
367.63        113.9701
368.08        113.0527
368.53        112.1914
368.98        111.3867
369.43        110.6407
369.88        109.9469
370.33        109.3094
370.78         108.714
371.23         108.137
371.68        107.5624
372.13        106.9752
372.58        106.3683
373.03        105.7354
373.48        105.0685
373.93        104.3696
374.38        103.6165
374.83        102.7847
375.28         101.888
375.72        100.9277
376.17        100.0355
376.62        99.28114
377.07        98.69369
377.52        98.27728
377.97        97.95002
378.42        97.58921
378.87        97.16053
379.32        96.65115
379.77        96.20824
380.22        96.05397
380.67        96.18671
381.11        96.56066
381.56        96.78082
382.01        96.30236
382.46        95.07533
382.91        93.37047
383.36        91.69322
383.81        90.72613
384.26         90.5789
384.71        91.01947
385.15        91.73052
385.60         92.1506
386.05        92.09212
386.50         91.7113
386.95        91.11627
387.40         90.4846
387.85        89.90063
388.29        89.25064
388.74        88.67552
389.19        88.15437
389.64        87.68082
390.09        87.26016
390.54        86.88258
390.98        86.50109
391.43        86.15929
391.88        85.85867
392.33        85.58949
392.78        85.33542
393.23        85.09357
393.67        84.82365
394.12        84.62342
394.57        84.47892
395.02        84.37885
395.47        84.27725
395.91        84.16798
396.36        84.01746
396.81         83.8492
397.26        83.68192
397.71        83.45982
398.15        83.14254
398.60        82.84982
399.05        82.30988
399.50        81.69427
399.95        81.83559
400.39        82.52231
400.84        82.22216
401.29        81.07847
401.74         80.8039
402.18         81.3536
402.63        81.22315
403.08        80.46432
403.53        80.11472
403.97        80.19526
404.42        80.21025
404.87         80.1121
405.32        79.96057
405.76        79.72633
406.21        79.59155
406.66        79.53134
407.11        79.19424
407.55         78.7822
408.00        78.96558
408.45        79.65279
408.90        80.13706
409.34        80.16949
409.79         79.6731
410.24        78.89772
410.68        78.49606
411.13        78.55645
411.58        78.70293
412.03        78.78845
412.47        78.74644
412.92        78.50446
413.37        78.12848
413.81        77.73701
414.26        77.57391
414.71        77.65276
415.15        77.93414
415.60        78.27789
416.05        78.52934
416.49        78.63335
416.94        78.62013
417.39        78.56299
417.83         78.5634
418.28        78.64921
418.73        78.77087
419.17        78.88644
419.62        78.93914
420.07        78.90821
420.51        78.80438
420.96        78.67487
421.41        78.52376
421.85        78.34692
422.30        78.22536
422.74        78.10262
423.19          78.026
423.64        77.95727
424.08        77.87475
424.53        77.82692
424.98        77.94652
425.42        78.24223
425.87        78.74935
426.31        79.26814
426.76        79.14366
427.21        78.48683
427.65        78.14354
428.10        78.18924
428.54        78.16657
428.99        78.13497
429.44        78.16958
429.88        78.33693
430.33        78.93765
430.77        79.67459
431.22         80.1016
431.66        80.08067
432.11         79.4962
432.56        78.64146
433.00        78.43369
433.45        79.12548
433.89        79.86372
434.34         79.8746
434.78        81.07301
435.23         80.8392
435.67        77.42548
436.12        78.53738
436.57        78.57813
437.01        79.63044
437.46        79.98386
437.90        79.60776
438.35        79.06805
438.79        79.06292
439.24        79.07348
439.68        79.24978
440.13        79.81833
440.57        80.58317
441.02        80.55197
441.46        79.86871
441.91        80.12124
442.35        80.99466
442.80        80.89092
443.24        79.98479
443.69        80.02197
444.13        80.90533
444.58        81.30907
445.02        81.17446
445.47        81.19096
445.91        81.39865
446.36        81.61092
446.80        81.81426
447.24        82.03368
447.69        82.24917
448.13        82.41615
448.58        82.53996
449.02        82.60855
449.47        82.62609
449.91        82.56094
450.36        82.44981
450.80        82.28378
451.25        82.15524
451.69        82.13803
452.13         82.2626
452.58        82.49049
453.02        82.74442
453.47        82.90891
453.91        82.93774
454.36        82.86801
454.80        82.71444
455.24        82.46793
455.69        82.16209
456.13        81.87451
456.58        81.68031
457.02        81.27431
457.46        80.84238
457.91        81.05122
458.35        81.62164
458.79        81.58319
459.24        80.94547
459.68        80.14161
460.13        79.45129
460.57        79.18487
461.01        79.52485
461.46        79.80685
461.90        79.75839
462.34        81.39715
462.79        81.30583
463.23        80.75977
463.68        81.43681
464.12        81.05112
464.56        80.43796
465.01        79.59768
465.45        78.78188
465.89        78.59539
466.34        78.89883
466.78        79.20363
467.22        79.41756
467.67         78.9724
468.11         78.8703
468.55        78.94307
468.99        79.35167
469.44        79.35566
469.88        78.94325
470.32        78.54973
470.77        78.28975
471.21        78.15621
471.65        78.16792
472.10        78.33501
472.54        78.54745
472.98        78.59812
473.42        78.43204
473.87        78.25568
474.31        78.06243
474.75        77.60773
475.20        77.09795
475.64        77.18707
476.08        77.74886
476.52        77.86607
476.97        77.45827
477.41        77.15179
477.85        77.17224
478.29        76.52782
478.74         77.2998
479.18        77.34419
479.62        77.25314
480.06        77.22009
480.50         77.2455
480.95        77.21887
481.39        77.13908
481.83         76.9301
482.27        77.09313
482.72        77.12335
483.16        77.17379
483.60        77.15485
484.04        77.19426
484.48        77.55035
484.93        77.65254
485.37         78.0006
485.81        77.20862
486.25         75.7083
486.69        74.51898
487.14        77.77168
487.58         78.3654
488.02        77.21826
488.46        75.92046
488.90        76.33111
489.34        77.61663
489.79        78.68719
490.23        78.08765
490.67         77.2846
491.11        76.41817
491.55        76.18757
491.99        76.55761
492.43        76.50673
492.88        76.02672
493.32        75.89219
493.76         76.1347
494.20        76.32163
494.64        76.40038
495.08         76.6152
495.52        76.87939
495.96        76.70792
496.41        76.22156
496.85        76.28291
497.29        76.67486
497.73        76.71993
498.17         75.5536
498.61        75.40842
499.05        75.96577
499.49        76.20794
499.93        75.83637
500.37        75.91153
500.82        76.28449
501.26        76.27332
501.70        75.92806
502.14        75.83336
502.58        76.01948
503.02        76.12807
503.46        76.15508
503.90        76.31703
504.34         76.5298
504.78        76.54585
505.22         76.3396
505.66        75.98964
506.10        75.62709
506.54        75.45891
506.98        75.52969
507.42        75.76585
507.86        76.05598
508.30        76.21954
508.74        76.20257
509.18        76.06562
509.62        75.86419
510.06        75.68781
510.50        75.57329
510.94        75.49023
511.38        75.44991
511.82        75.47242
512.26        75.55543
512.70        75.70356
513.14        75.87176
513.58        75.98038
514.02        76.00896
514.46        75.96618
514.90        75.90536
515.34        75.92048
515.78        76.02573
516.22         76.1866
516.66        76.32995
517.10        76.33944
517.54        76.19604
517.98        75.95155
518.42        75.67995
518.86        75.49588
519.30        75.43522
519.74        75.46122
520.18        75.54964
520.62        75.66032
521.06        75.77214
521.50        75.89938
521.93        76.01779
522.37        76.06221
522.81        76.03322
523.25         75.9387
523.69        75.82935
524.13        75.79243
524.57        75.84052
525.01        75.93875
525.45        76.03741
525.89        76.05343
526.32        75.95801
526.76        75.80688
527.20        75.61353
527.64        75.40492
528.08        75.20409
528.52        75.00599
528.96        74.85834
529.40        74.83559
529.83        74.93785
530.27        75.14606
530.71        75.37256
531.15        75.48228
531.59        75.44407
532.03        75.29606
532.46         75.0918
532.90        74.97209
533.34        74.95914
533.78        74.96914
534.22        74.97832
534.66        75.04481
535.09        75.09847
535.53        74.97791
535.97        74.71445
536.41        74.54941
536.85        74.50809
537.28        74.46217
537.72         74.4262
538.16        74.48358
538.60        74.62749
539.04        74.82281
539.47        75.00807
539.91        75.13828
540.35        75.17809
540.79        75.14742
541.22        75.05435
541.66        74.93662
542.10        74.80937
542.54        74.67843
542.97        74.55537
543.41        74.49172
543.85        74.48215
544.29        74.51947
544.72        74.58357
545.16        74.66337
545.60        74.72894
546.04         74.8527
546.47        75.00253
546.91        74.96719
547.35        74.81232
547.79        74.89281
548.22         75.1515
548.66        75.21738
549.10        75.14063
549.53        75.02601
549.97        74.92622
550.41        74.73573
550.84        74.55531
551.28        74.56279
551.72        74.67933
552.15        74.81546
552.59        75.08604
553.03        74.42569
553.46        74.99539
553.90        74.93234
554.34        74.86376
554.77        74.78152
555.21        74.74016
555.65        74.78188
556.08        74.87705
556.52        74.95489
556.96        74.96783
557.39         75.0496
557.83        75.13785
558.27        74.83926
558.70        74.26867
559.14         74.0389
559.57        74.13825
560.01        74.18285
560.45        74.15237
560.88         74.2148
561.32        74.38425
561.75        74.59908
562.19        74.81164
562.63         74.7752
563.06        74.54498
563.50        74.50671
563.93        74.59296
564.37        74.61528
564.80        74.58697
565.24        74.43391
565.68        74.03775
566.11        74.79222
566.55        74.01515
566.98        73.90433
567.42        73.78401
567.85        73.83409
568.29        74.07552
568.72        74.40356
569.16        74.79216
569.60        75.08126
570.03        74.87666
570.47        74.89634
570.90        75.12086
571.34        74.20812
571.77        74.49945
572.21        74.93887
572.64        74.77231
573.08        75.43156
573.51        74.61793
573.95        74.45445
574.38        74.62093
574.82        74.83533
