SpectraSmart Spectrum 2.9.0.0
--------- Device Information -----------
Spectrum Name :  反射率_0
Saving Time :  2024/04/26 22:43:00
Spectro-Module Model Name : SE2030-DUVN
Spectro-Module Serial Number : OS361AC55029948
Wavelength Start : 200
Wavelength End : 1025
Wavelength Unit : Wavelength(nm)
Spectrum Unit : Reflectance(%)
-----------Spectrum Setting ------------
Integration Time : 20ms
Average : 10
Boxcar : 0
Background removal :  enabled
linearity correction :  enabled
SC :  disabled
Intensity correction :  disabled
DWT denoise :  enabled
savitzky-golay :  disabled
FFT :  disabled
Running average :  disabled
Kalman :  disabled
High pass :  disabled
---------------BEGIN--------------------
Wavelength(nm)             Reflectance(%)
200.29               0
200.75        38.84587
201.21        45.41939
201.67        52.08352
202.13        56.75276
202.58        59.43106
203.04         61.5789
203.50        63.08213
203.96        62.82542
204.42        60.27021
204.88        54.99086
205.34        49.11426
205.80        47.02388
206.26        49.33009
206.72        54.21584
207.18        58.88427
207.64        60.83211
208.10        60.02433
208.55        57.44502
209.01        52.60772
209.47        48.48851
209.93        47.97474
210.39        49.39711
210.85         51.8907
211.31        55.97436
211.77        63.23898
212.23        78.97857
212.69        116.8594
213.14        176.4205
213.60        166.1831
214.06        118.1964
214.52        88.17963
214.98        76.38757
215.44         73.2466
215.90        73.31796
216.36        75.35799
216.81        78.13951
217.27        81.53245
217.73        87.87635
218.19         95.5369
218.65        95.31602
219.11         86.3829
219.57        75.40208
220.02        68.99499
220.48        71.06728
220.94        80.93312
221.40        99.42928
221.86        125.8534
222.32        142.4662
222.77        133.9811
223.23        113.0096
223.69        91.21338
224.15        74.47667
224.61        62.54207
225.06        53.20429
225.52        47.30055
225.98        45.60234
226.44        47.35231
226.90        51.78477
227.36         56.8206
227.81        58.81251
228.27        57.20216
228.73        53.28893
229.19        49.20594
229.65        47.40884
230.10        48.06259
230.56        50.27712
231.02        52.74416
231.48        53.46367
231.93        52.06837
232.39        49.73084
232.85        47.50975
233.31        46.74448
233.77        47.59845
234.22        49.58902
234.68        52.06593
235.14        54.17348
235.60        55.63554
236.05        56.76726
236.51        57.77896
236.97        59.07429
237.43        60.75868
237.88        62.61377
238.34        64.46767
238.80        66.51134
239.26        68.97195
239.71         72.5022
240.17        76.86993
240.63        81.57825
241.08        86.24706
241.54        90.07191
242.00        94.50719
242.46        103.2348
242.91        119.8888
243.37        147.4497
243.83        187.3317
244.28        223.7842
244.74        230.4477
245.20        204.2614
245.66        168.3897
246.11         145.174
246.57        136.0166
247.03        135.3386
247.48        135.2416
247.94        124.7953
248.40         107.514
248.85        90.87969
249.31        79.91212
249.77        76.61221
250.22        79.76369
250.68        88.17197
251.14        99.93776
251.59        107.0107
252.05        104.7888
252.51        97.62805
252.96        88.78831
253.42        81.88066
253.88        77.37931
254.33         73.6329
254.79        72.82409
255.25        76.61467
255.70        84.09983
256.16        94.37237
256.62        102.7383
257.07        102.2244
257.53        95.10854
257.99         85.9615
258.44        78.45613
258.90        75.78003
259.35        76.39355
259.81        78.90236
260.27        81.35191
260.72          81.466
261.18        79.50393
261.63        76.27621
262.09        73.25285
262.55        71.27094
263.00        70.21713
263.46        69.83459
263.91        69.35978
264.37        68.27883
264.83        66.53537
265.28        64.40839
265.74         62.5729
266.19        61.47578
266.65        61.21706
267.11        61.44164
267.56        61.74517
268.02        61.51791
268.47        60.59832
268.93        59.24857
269.38        57.65374
269.84        56.16949
270.30        54.89497
270.75        53.69982
271.21        52.66315
271.66        51.83255
272.12        51.18877
272.57        50.70201
273.03        50.17646
273.48         49.2648
273.94        47.99493
274.39        46.46159
274.85        44.99442
275.31        43.88713
275.76        43.15961
276.22        42.73494
276.67        42.41862
277.13        42.05319
277.58        41.51909
278.04         40.9043
278.49        40.18416
278.95        39.46229
279.40        38.70892
279.86        37.98299
280.31        37.21804
280.77        36.45313
281.22        35.66393
281.68        34.94283
282.13        34.30806
282.59        33.88075
283.04        33.62437
283.50        33.51521
283.95         33.4789
284.41        33.42033
284.86        33.29949
285.32        33.16938
285.77        33.01744
286.22        32.90084
286.68        32.83468
287.13        32.76016
287.59        32.70811
288.04         32.6768
288.50        32.68279
288.95        32.68727
289.41        32.67339
289.86        32.53521
290.32        32.31152
290.77        32.03615
291.22        31.79963
291.68        31.71209
292.13        31.80663
292.59        32.09519
293.04         32.5765
293.50        33.26359
293.95        34.13389
294.40         35.1763
294.86          36.369
295.31        37.66321
295.77        39.03735
296.22        40.46814
296.68        41.91954
297.13        43.32968
297.58        44.70058
298.04        46.04615
298.49        47.42475
298.95        48.95374
299.40        50.63662
299.85        52.44337
300.31        54.29233
300.76        56.02874
301.21        57.63519
301.67        59.18162
302.12        60.71746
302.58        62.41058
303.03        64.24064
303.48        66.17404
303.94        68.16631
304.39        70.08315
304.84        71.92308
305.30        73.73663
305.75        75.50161
306.20        77.27668
306.66        79.08774
307.11        80.87458
307.57        82.64046
308.02        84.28126
308.47        85.80834
308.93        87.25188
309.38         88.6447
309.83        90.15794
310.29        91.81683
310.74         93.5584
311.19        95.22856
311.65        96.54798
312.10        97.43266
312.55        97.96375
313.00        98.35076
313.46        98.92602
313.91        99.74965
314.36        100.7625
314.82        101.7936
315.27        102.5789
315.72        103.0316
316.18        103.2687
316.63        103.4198
317.08        103.7332
317.53        104.2746
317.99        104.9541
318.44        105.6697
318.89        106.2276
319.35        106.5673
319.80        106.7529
320.25        106.8734
320.70        107.0723
321.16        107.3874
321.61        107.8133
322.06        108.2596
322.51        108.5911
322.97        108.7603
323.42        108.8126
323.87        108.8841
324.32        109.2174
324.78        109.8162
325.23        110.6808
325.68        111.5076
326.13         111.807
326.59        111.4761
327.04        110.7057
327.49        109.8685
327.94        109.5853
328.39        110.0075
328.85        110.9132
329.30        112.1074
329.75        112.9663
330.20        113.2734
330.66        113.1764
331.11        112.9201
331.56        112.8208
332.01        112.9977
332.46        113.3211
332.92        113.6673
333.37         114.014
333.82        114.2702
334.27        114.5257
334.72         114.786
335.17        115.0235
335.63         115.247
336.08        115.5193
336.53        115.9259
336.98        116.6654
337.43          117.75
337.88        119.0613
338.34        120.4155
338.79        121.6342
339.24        122.5515
339.69        123.2168
340.14        123.5417
340.59        123.4127
341.05        122.9199
341.50         122.148
341.95        121.4362
342.40        121.2942
342.85        121.8322
343.30        122.8998
343.75        124.2433
344.20        125.4134
344.66        126.2355
345.11        126.8043
345.56        127.1302
346.01        127.2544
346.46        127.2425
346.91        127.0951
347.36        126.9242
347.81        126.9322
348.26        127.1551
348.72        127.5279
349.17        128.0001
349.62        128.5095
350.07        129.0022
350.52        129.5143
350.97        129.8467
351.42        129.6895
351.87        129.0298
352.32        127.9694
352.77        126.9249
353.22        126.5143
353.67        126.8396
354.13        127.7195
354.58        128.7135
355.03        129.0295
355.48        128.4706
355.93        127.2806
356.38        125.9377
356.83        125.1637
357.28         125.104
357.73        125.5004
358.18        125.9513
358.63        125.8206
359.08        124.9481
359.53        123.5755
359.98        122.0156
360.43        120.7048
360.88        119.7643
361.33        119.0608
361.78        118.4453
362.23        117.6984
362.68          116.77
363.13        115.7573
363.58        114.7763
364.03        113.9794
364.48        113.3855
364.93         112.915
365.38         112.452
365.83        111.8298
366.28         111.009
366.73        110.0611
367.18        109.0721
367.63        108.1459
368.08        107.3163
368.53        106.6422
368.98        105.9339
369.43        105.2767
369.88        104.6048
370.33        103.9441
370.78        103.2886
371.23        102.6346
371.68        101.9847
372.13        101.3216
372.58        100.6737
373.03        100.0884
373.48        99.56063
373.93        99.07068
374.38        98.53859
374.83        97.84571
375.28        96.97726
375.72        95.95737
376.17        94.95317
376.62        94.09569
377.07        93.43658
377.52        92.97229
377.97        92.60623
378.42        92.19241
378.87        91.69681
379.32        91.11989
379.77        90.64484
380.22        90.54251
380.67        90.81585
381.11        91.40186
381.56        91.84871
382.01        91.50351
382.46        90.28867
382.91        88.50732
383.36        86.73544
383.81         85.7612
384.26        85.71406
384.71        86.32376
385.15        87.22205
385.60        87.76313
386.05        87.73187
386.50        87.31636
386.95        86.64677
387.40        85.93594
387.85        85.28348
388.29        84.56641
388.74        83.94153
389.19        83.41745
389.64        83.00394
390.09        82.72305
390.54        82.50796
390.98        82.25553
391.43        81.97985
391.88         81.5535
392.33        81.10921
392.78        81.04173
393.23        81.19182
393.67        81.09229
394.12        80.78046
394.57        80.11546
395.02        79.36002
395.47        79.43029
395.91        80.17259
396.36        80.33043
396.81        79.83907
397.26         79.4513
397.71        79.21949
398.15        78.88656
398.60        78.56763
399.05        78.18971
399.50        77.82983
399.95         77.7757
400.39        77.95949
400.84        77.88309
401.29        77.51532
401.74        77.19611
402.18        76.93933
402.63        76.48517
403.08        75.96881
403.53        75.69612
403.97        75.69928
404.42        75.89528
404.87        76.12712
405.32        76.12575
405.76        75.82256
406.21        75.38239
406.66        74.94715
407.11        74.62952
407.55         74.5602
408.00        74.90256
408.45         75.4877
408.90        75.72059
409.34         75.4822
409.79        75.05523
410.24        74.60855
410.68        74.28419
411.13        74.15453
411.58         74.1752
412.03        74.23994
412.47        74.18066
412.92        73.93934
413.37        73.60686
413.81        73.30925
414.26        73.29583
414.71         73.5736
415.15        74.09045
415.60        74.64828
416.05        74.98682
416.49        75.02303
416.94        74.81873
417.39         74.5237
417.83        74.35937
418.28        74.39366
418.73        74.55952
419.17        74.77065
419.62        74.89132
420.07        74.87067
420.51        74.73647
420.96        74.58713
421.41        74.46517
421.85        74.36396
422.30        74.45277
422.74        74.57069
423.19        74.34264
423.64        73.84207
424.08        73.70982
424.53        73.97774
424.98        74.17109
425.42        74.27258
425.87        74.69778
426.31        75.27208
426.76         75.1765
427.21        74.53452
427.65        74.28365
428.10        74.47086
428.54        74.55596
428.99        74.58577
429.44        74.64547
429.88        74.81962
430.33        75.45811
430.77        76.23952
431.22        76.65741
431.66        76.59486
432.11        75.91316
432.56          74.984
433.00        75.01118
433.45        76.10738
433.89        76.96701
434.34        76.88948
434.78        77.78593
435.23        77.27441
435.67        74.90707
436.12        74.98093
436.57        75.12082
437.01        76.32999
437.46        76.80446
437.90        76.51283
438.35        75.62547
438.79        75.89513
439.24        75.86673
439.68        76.01005
440.13         76.4257
440.57        77.03249
441.02        77.25792
441.46        77.11503
441.91        77.60459
442.35        78.38702
442.80        78.21211
443.24        77.29925
443.69        77.26811
444.13        78.05626
444.58        78.53711
445.02        78.45793
445.47        78.53532
445.91        78.77636
446.36        78.98415
446.80        79.11539
447.24        79.39704
447.69        79.88047
448.13        79.37578
448.58        79.95568
449.02        79.93327
449.47        79.93174
449.91        79.88672
450.36        79.84151
450.80        79.76382
451.25        79.68404
451.69        79.63277
452.13        79.63158
452.58        79.66743
453.02        79.72358
453.47        79.77826
453.91        79.80573
454.36        79.81852
454.80        79.80285
455.24        79.62945
455.69        79.29281
456.13        79.05148
456.58        79.00699
457.02        78.27093
457.46        77.88138
457.91        78.19862
458.35        78.96057
458.79        79.01297
459.24        78.29216
459.68        77.39366
460.13        76.67793
460.57        76.35025
461.01        76.54488
461.46        77.05888
461.90        77.66092
462.34        78.38284
462.79        78.30157
463.23         78.3121
463.68        78.16071
464.12        78.04105
464.56        77.83645
465.01        77.04206
465.45        75.90556
465.89        75.51601
466.34        75.81047
466.78        76.09232
467.22        76.27171
467.67        76.02374
468.11        76.06569
468.55        76.12752
468.99        76.34172
469.44        76.27201
469.88        75.92509
470.32        75.56462
470.77        75.28127
471.21        75.11571
471.65         75.0814
472.10        75.16486
472.54        75.30751
472.98        75.37247
473.42        75.31248
473.87        75.34336
474.31        75.35051
474.75        74.87301
475.20        74.11687
475.64        73.88831
476.08         74.1955
476.52         74.2454
476.97         73.9861
477.41        74.08368
477.85        74.56629
478.29        74.15412
478.74        74.33128
479.18        74.46285
479.62        74.41231
480.06        74.39141
480.50        74.26585
480.95        74.12812
481.39        73.94608
481.83        74.04796
482.27        73.97819
482.72        74.00995
483.16        74.04332
483.60        74.09765
484.04        74.16955
484.48        74.45134
484.93        74.57944
485.37        74.35776
485.81        73.18145
486.25        72.76531
486.69        72.76147
487.14        74.90562
487.58        74.93918
488.02        74.09795
488.46        73.41968
488.90         73.4793
489.34        75.01831
489.79        75.66396
490.23        75.20591
490.67        74.41788
491.11        73.59595
491.55        73.27644
491.99        73.44053
492.43        73.30138
492.88        72.86896
493.32        72.80106
493.76        73.07211
494.20        73.27705
494.64        73.36847
495.08         73.4084
495.52        73.41125
495.96        73.51154
496.41        73.67007
496.85        73.63761
497.29        73.32897
497.73        73.31602
498.17        72.71436
498.61        72.56228
499.05        72.53982
499.49        72.78933
499.93        72.92252
500.37        73.14275
500.82        73.32413
501.26         73.2304
501.70        72.88528
502.14          73.216
502.58        72.97503
503.02        73.07753
503.46        73.14577
503.90        73.33892
504.34        73.56324
504.78        73.57954
505.22        73.32844
505.66        73.01227
506.10        72.80976
506.54        72.48399
506.98        71.97366
507.42        73.08385
507.86        72.88566
508.30        72.66399
508.74        73.06182
509.18        72.95489
509.62        72.81921
510.06        72.69802
510.50        72.65395
510.94        72.61613
511.38        72.58646
511.82        72.61123
512.26         72.6869
512.70        72.80989
513.14        72.94592
513.58        73.03304
514.02        73.05666
514.46        73.03015
514.90        72.98759
515.34         72.9888
515.78        73.04518
516.22        73.13196
516.66        73.21892
517.10        73.25806
517.54        73.23793
517.98        73.18204
518.42        73.10059
518.86        73.00881
519.30        72.91784
519.74        72.82047
520.18         72.7454
520.62        72.73602
521.06        72.79764
521.50        72.92554
521.93        73.06547
522.37        73.10302
522.81        73.02691
523.25        72.86395
523.69         72.6982
524.13        72.66452
524.57        72.78145
525.01         72.9932
525.45        73.20663
525.89        73.27155
526.32        73.14494
526.76        72.90621
527.20        72.61008
527.64        72.34673
528.08        72.15655
528.52         72.0146
528.96        71.94524
529.40        71.98728
529.83        72.12749
530.27        72.35437
530.71         72.5882
531.15        72.70531
531.59         72.6767
532.03        72.53556
532.46        72.32293
532.90        72.16087
533.34        72.07313
533.78        71.98884
534.22        71.91077
534.66        71.93122
535.09        71.98998
535.53        71.92139
535.97        71.72946
536.41        71.60551
536.85        71.56223
537.28        71.48359
537.72        71.40371
538.16        71.43918
538.60        71.59103
539.04         71.8106
539.47        72.01918
539.91        72.15013
540.35        72.16747
540.79        72.09835
541.22        71.98219
541.66        71.90784
542.10        71.89259
542.54        71.91195
542.97        71.93819
543.41        71.96295
543.85        71.96473
544.29        71.95822
544.72        71.93137
545.16        71.89181
545.60        71.82879
546.04        71.79316
546.47        71.79317
546.91        71.74587
547.35        71.70174
547.79        71.84941
548.22         72.1209
548.66        72.27958
549.10         72.3392
549.53        72.23802
549.97        72.04834
550.41        71.82838
550.84        71.68327
551.28        71.71695
551.72        71.84284
552.15        71.95265
552.59        72.09601
553.03        71.52313
553.46        71.95845
553.90        71.82655
554.34        71.80221
554.77        71.73927
555.21        71.72273
555.65        71.77604
556.08        71.86375
556.52        71.89317
556.96        71.84385
557.39        71.91277
557.83        72.04564
558.27        71.82421
558.70         71.3287
559.14        71.13705
559.57        71.22831
560.01        71.20165
560.45        71.09883
560.88        71.20893
561.32        71.52381
561.75        71.91157
562.19        72.25211
562.63        72.12923
563.06         71.6608
563.50        71.55879
563.93        71.76031
564.37        71.79819
564.80         71.6912
565.24        71.55549
565.68        71.24334
566.11        71.99842
566.55        71.23984
566.98        70.99582
567.42        70.70954
567.85        70.94263
568.29        71.58005
568.72        71.92297
569.16        72.04325
569.60        72.04852
570.03        72.13781
570.47        72.31886
570.90        72.75836
571.34        71.62194
571.77        71.87514
572.21        72.64127
572.64        72.20331
573.08        72.53261
573.51        72.11764
573.95        71.97422
574.38        72.12721
574.82        72.14294
