SpectraSmart Spectrum 2.9.0.0
--------- Device Information -----------
Spectrum Name :  反射率_0
Saving Time :  2024/04/26 22:43:22
Spectro-Module Model Name : SE2030-DUVN
Spectro-Module Serial Number : OS361AC55029948
Wavelength Start : 200
Wavelength End : 1025
Wavelength Unit : Wavelength(nm)
Spectrum Unit : Reflectance(%)
-----------Spectrum Setting ------------
Integration Time : 20ms
Average : 10
Boxcar : 0
Background removal :  enabled
linearity correction :  enabled
SC :  disabled
Intensity correction :  disabled
DWT denoise :  enabled
savitzky-golay :  disabled
FFT :  disabled
Running average :  disabled
Kalman :  disabled
High pass :  disabled
---------------BEGIN--------------------
Wavelength(nm)             Reflectance(%)
200.29               0
200.75        58.44841
201.21        57.52177
201.67         57.0811
202.13        56.92133
202.58        56.94228
203.04        57.42843
203.50        58.94972
203.96        62.32087
204.42        67.71107
204.88        74.78232
205.34        81.27632
205.80        83.84778
206.26         81.8302
206.72        76.19443
207.18         70.4455
207.64        67.50211
208.10         67.4874
208.55         70.9779
209.01        75.38717
209.47        72.93657
209.93        63.31722
210.39        53.11729
210.85        47.49557
211.31        48.88958
211.77         58.4936
212.23        83.50462
212.69        147.6593
213.14        253.8538
213.60        246.9608
214.06        169.9598
214.52        118.7593
214.98        96.63842
215.44         88.1772
215.90        84.00652
216.36        82.56569
216.81        82.96534
217.27        85.02241
217.73         91.4999
218.19        100.1923
218.65        99.35209
219.11         87.7473
219.57        73.75511
220.02        65.45199
220.48        67.06808
220.94        77.80708
221.40        99.07465
221.86         129.762
222.32        148.5886
222.77         138.128
223.23        112.9405
223.69         89.0823
224.15        75.34348
224.61        69.74409
225.06        67.82391
225.52        67.76975
225.98        67.56323
226.44          66.812
226.90        66.29527
227.36        65.94645
227.81        65.51353
228.27        65.11102
228.73         64.3844
229.19        63.90612
229.65        64.48296
230.10        66.00611
230.56         68.2983
231.02        70.11703
231.48        69.54047
231.93        66.48665
232.39        62.20446
232.85        58.26269
233.31        56.71339
233.77        57.66942
234.22        60.34184
234.68        63.57196
235.14        65.60748
235.60        65.89303
236.05        65.01177
236.51        63.23525
236.97        61.35045
237.43        59.86386
237.88        58.56041
238.34        57.83123
238.80        58.59678
239.26        61.24118
239.71         66.6159
240.17        73.92441
240.63        80.36655
241.08        84.01951
241.54        83.89474
242.00        82.69021
242.46        87.04726
242.91        101.7096
243.37         129.616
243.83        171.8905
244.28        209.4357
244.74        213.4053
245.20        183.3121
245.66        144.2238
246.11         119.362
246.57        109.8679
247.03        108.7397
247.48        110.1677
247.94        105.8986
248.40        96.82611
248.85        88.01788
249.31        81.76711
249.77        78.01888
250.22        75.80926
250.68        73.83554
251.14        72.04243
251.59        71.24274
252.05        72.10517
252.51        74.84011
252.96        76.66785
253.42        75.44032
253.88        71.62797
254.33        66.01474
254.79        62.25242
255.25         63.1998
255.70        68.18362
256.16        75.81331
256.62        81.75637
257.07        79.94753
257.53        72.57359
257.99        63.81382
258.44        56.90195
258.90        54.46708
259.35        55.11393
259.81          57.498
260.27          59.812
260.72        59.93032
261.18        58.06329
261.63        55.08012
262.09        52.30238
262.55        50.58693
263.00        49.84941
263.46        49.74865
263.91        49.64968
264.37        49.06557
264.83         47.9216
265.28        46.45199
265.74        45.14235
266.19        44.29408
266.65        43.99024
267.11        43.98229
267.56        44.01484
268.02        43.70341
268.47        42.95956
268.93        41.96478
269.38        40.84498
269.84         39.8387
270.30        39.00603
270.75        38.25206
271.21        37.62688
271.66        37.15595
272.12        36.81506
272.57        36.57428
273.03        36.27488
273.48        35.64841
273.94        34.71527
274.39        33.55421
274.85        32.42504
275.31        31.56048
275.76         30.9866
276.22        30.64843
276.67        30.41565
277.13        30.17984
277.58        29.85632
278.04        29.50863
278.49        29.10456
278.95        28.70144
279.40        28.27072
279.86        27.86266
280.31        27.43093
280.77         27.0129
281.22        26.58298
281.68        26.18598
282.13        25.83911
282.59        25.64084
283.04        25.56077
283.50        25.58088
283.95        25.59857
284.41        25.46566
284.86        25.15364
285.32        24.73838
285.77        24.30742
286.22         24.0359
286.68        23.95579
287.13         23.9877
287.59        24.06345
288.04        24.03846
288.50        23.89963
288.95        23.66576
289.41        23.41989
289.86        23.22281
290.32        23.12237
290.77        23.08991
291.22        23.09571
291.68        23.08246
292.13        23.04739
292.59        23.04608
293.04        23.16169
293.50        23.53586
293.95        24.18642
294.40        25.06811
294.86        26.09575
295.31        27.12642
295.77        28.12454
296.22        29.12012
296.68        30.16095
297.13        31.31032
297.58          32.601
298.04        34.01801
298.49         35.5496
298.95        37.19336
299.40        38.93154
299.85         40.7706
300.31        42.70642
300.76        44.71271
301.21        46.78547
301.67        48.93608
302.12        51.12796
302.58        53.38704
303.03        55.67015
303.48        57.99228
303.94         60.3719
304.39        62.77911
304.84        65.23878
305.30        67.76601
305.75        70.31448
306.20        72.90032
306.66        75.52054
307.11        78.11289
307.57        80.67014
308.02        83.07764
308.47        85.33698
308.93        87.47482
309.38        89.50838
309.83        91.59319
310.29        93.76888
310.74         95.9949
311.19        98.15699
311.65        100.0297
312.10        101.5301
312.55        102.7043
313.00        103.7405
313.46          104.95
313.91        106.3783
314.36        107.9718
314.82        109.5141
315.27        110.6637
315.72        111.3244
316.18        111.6458
316.63        111.8328
317.08         112.261
317.53        113.0279
317.99        114.0023
318.44        115.0427
318.89        115.8813
319.35        116.4237
319.80         116.758
320.25        116.9554
320.70        117.1285
321.16         117.327
321.61         117.569
322.06        117.8273
322.51        118.0758
322.97        118.2963
323.42        118.5045
323.87         118.808
324.32        119.3967
324.78        120.2451
325.23        121.3798
325.68         122.443
326.13        122.8567
326.59        122.5036
327.04        121.5874
327.49        120.5952
327.94        120.3403
328.39        121.0146
328.85        122.3497
329.30        124.0163
329.75        125.1105
330.20         125.335
330.66        124.9143
331.11        124.2684
331.56        123.9896
332.01         124.273
332.46        124.9069
332.92        125.6249
333.37        126.1768
333.82        126.3862
334.27        126.4127
334.72        126.3622
335.17        126.3694
335.63        126.4943
336.08        126.7574
336.53        127.1762
336.98        127.8435
337.43        128.7499
337.88        129.8291
338.34        130.9694
338.79        132.1159
339.24        133.1304
339.69        134.0121
340.14        134.6108
340.59        134.7189
341.05        134.3803
341.50        133.6863
341.95         132.976
342.40        132.7618
342.85        133.1666
343.30        134.0504
343.75        135.1665
344.20        136.0843
344.66        136.6512
345.11        136.9685
345.56         137.109
346.01        137.1997
346.46        137.3108
346.91        137.4171
347.36         137.513
347.81        137.6173
348.26         137.728
348.72        137.8249
349.17        137.9821
349.62        138.3482
350.07        138.9089
350.52        139.6239
350.97        140.1621
351.42        140.0031
351.87        139.0882
352.32        137.6078
352.77         136.082
353.22        135.2705
353.67        135.3208
354.13        136.0101
354.58        136.8826
355.03         137.121
355.48         136.511
355.93         135.303
356.38        133.9567
356.83        133.1617
357.28        133.0453
357.73        133.3364
358.18        133.6284
358.63        133.2882
359.08         132.167
359.53         130.524
359.98        128.6734
360.43        127.0478
360.88        125.7771
361.33        124.7322
361.78        123.8195
362.23        122.9038
362.68        121.9434
363.13        121.0052
363.58         120.105
364.03        119.2383
364.48        118.3889
364.93        117.5174
365.38        116.6109
365.83        115.6787
366.28        114.7308
366.73         113.783
367.18         112.826
367.63        111.8345
368.08        110.8155
368.53        109.7892
368.98        108.8119
369.43        107.9647
369.88         107.259
370.33        106.6631
370.78        106.1118
371.23         105.504
371.68        104.8056
372.13        104.0336
372.58        103.2254
373.03        102.4438
373.48        101.6979
373.93        100.9591
374.38        100.1883
374.83        99.33431
375.28        98.39687
375.72        97.39218
376.17        96.42092
376.62         95.5071
377.07        94.67939
377.52        93.95264
377.97        93.31843
378.42         92.7798
378.87        92.33334
379.32        91.92169
379.77        91.59261
380.22        91.45761
380.67        91.49728
381.11        91.52774
381.56        91.56989
382.01        91.00076
382.46        89.89999
382.91        88.44747
383.36        87.04689
383.81        86.24008
384.26        86.09646
384.71        86.43147
385.15        86.95195
385.60        87.13927
386.05        86.84328
386.50        86.22626
386.95        85.43205
387.40        84.69199
387.85        84.09839
388.29        83.52247
388.74        83.07909
389.19         82.7196
389.64        82.42249
390.09        82.20085
390.54        81.99712
390.98        81.68766
391.43        81.29754
391.88        80.84766
392.33        80.41708
392.78          80.088
393.23        79.86626
393.67        79.77231
394.12        79.78986
394.57         79.5222
395.02        79.03947
395.47        78.85413
395.91        78.93435
396.36        78.74529
396.81        78.30746
397.26        77.94817
397.71        77.65546
398.15        77.32748
398.60        77.07249
399.05        76.61303
399.50        76.09739
399.95        76.31045
400.39         77.0164
400.84         76.7571
401.29        75.62952
401.74        75.10894
402.18        75.24194
402.63        74.97529
403.08        74.38317
403.53        74.14377
403.97        74.26649
404.42        74.48232
404.87         74.6609
405.32        74.62844
405.76        74.33327
406.21        73.96645
406.66        73.59766
407.11        73.19271
407.55        72.92645
408.00        73.01349
408.45        73.39341
408.90        73.91572
409.34        74.27113
409.79         73.7944
410.24        72.76741
410.68        72.28822
411.13        72.45686
411.58        72.67114
412.03        72.76881
412.47        72.76092
412.92        72.57491
413.37        72.25191
413.81        71.92804
414.26        71.86881
414.71        72.08944
415.15        72.54098
415.60        73.04889
416.05        73.38496
416.49        73.47496
416.94        73.37788
417.39        73.20628
417.83        73.12257
418.28        73.17966
418.73        73.31908
419.17         73.4966
419.62        73.64864
420.07        73.74312
420.51         73.7845
420.96        73.80651
421.41        73.79572
421.85        73.73754
422.30        73.70612
422.74        73.63189
423.19        73.54437
423.64        73.40844
424.08        73.20435
424.53        73.02556
424.98        73.07636
425.42        73.38467
425.87        73.99305
426.31        74.66878
426.76        74.64539
427.21         74.0423
427.65        73.85197
428.10          74.111
428.54        74.18144
428.99        74.10894
429.44        74.08863
429.88        74.23444
430.33         74.7782
430.77        75.47385
431.22         76.1151
431.66        76.46703
432.11        75.91125
432.56        74.80748
433.00         74.5997
433.45        75.48489
433.89        76.33464
434.34         76.4715
434.78         76.9727
435.23        76.96762
435.67         74.1087
436.12            75.3
436.57        75.39021
437.01        76.16501
437.46        76.61166
437.90        76.35439
438.35         76.0796
438.79        76.12932
439.24        76.17915
439.68        76.30495
440.13         76.7362
440.57        77.37615
441.02        77.31255
441.46        76.71883
441.91        77.34696
442.35        78.69155
442.80         78.5126
443.24        77.11716
443.69        77.10439
444.13        78.35153
444.58        78.82443
445.02        78.45495
445.47        78.34747
445.91        78.59506
446.36        78.85415
446.80        79.10618
447.24        79.52423
447.69        80.00455
448.13        80.11231
448.58        79.95216
449.02        80.10742
449.47        80.52043
449.91        80.57481
450.36        80.28579
450.80        79.98374
451.25        79.78966
451.69        79.67613
452.13        79.68986
452.58        79.82862
453.02         80.0329
453.47        80.20933
453.91        80.30898
454.36        80.35954
454.80        80.36919
455.24         80.2216
455.69        79.91353
456.13        79.72441
456.58        79.76455
457.02        78.89345
457.46        78.68244
457.91        78.85698
458.35        79.50658
458.79        79.47924
459.24        78.78074
459.68        77.89935
460.13        77.16647
460.57        76.94273
461.01        77.37878
461.46        77.93599
461.90        78.32794
462.34        79.82317
462.79        78.95124
463.23        79.00538
463.68        78.96236
464.12        78.75891
464.56        78.31403
465.01        77.43525
465.45        76.40259
465.89        76.11277
466.34         76.4685
466.78        76.85335
467.22        77.15041
467.67        76.71554
468.11        76.64909
468.55        76.66872
468.99         77.0222
469.44        77.06604
469.88        76.80468
470.32        76.63604
470.77        76.59717
471.21        76.57084
471.65        76.54408
472.10        76.55102
472.54        76.57997
472.98        76.55679
473.42        76.45979
473.87          76.512
474.31        76.56696
474.75        76.06097
475.20        75.25915
475.64        75.00175
476.08        75.67713
476.52        75.77245
476.97        75.32449
477.41        75.31149
477.85        75.87251
478.29        75.06384
478.74        75.48062
479.18        75.84902
479.62        75.79626
480.06        75.85268
480.50        75.66406
480.95        75.61392
481.39        75.72842
481.83         75.1423
482.27         75.1786
482.72        75.52258
483.16        75.12039
483.60        75.20909
484.04        75.36671
484.48        75.77663
484.93        75.96317
485.37        75.77927
485.81        74.99612
486.25        74.15484
486.69        73.71272
487.14        76.52545
487.58        76.35728
488.02        75.47469
488.46        74.84014
488.90        74.85918
489.34        76.23502
489.79        77.35471
490.23        76.43443
490.67         75.5527
491.11        74.62074
491.55        74.45898
491.99        74.96909
492.43        74.99782
492.88        74.52587
493.32        74.40283
493.76        74.65191
494.20        74.83072
494.64         74.9008
495.08        74.98565
495.52        75.05133
495.96         75.0265
496.41        74.91647
496.85        74.80498
497.29         74.6119
497.73        74.61059
498.17        73.94785
498.61        73.97334
499.05        74.36398
499.49        74.80482
499.93        74.85932
500.37         74.8251
500.82        74.71813
501.26        74.26385
501.70        74.41696
502.14        74.54631
502.58        74.77737
503.02        74.94583
503.46         75.0026
503.90        75.08342
504.34        75.15352
504.78        75.10548
505.22        74.93326
505.66        74.68067
506.10        74.44678
506.54        74.28436
506.98         74.2024
507.42          74.366
507.86        74.74853
508.30        74.30795
508.74        74.58807
509.18         74.3651
509.62        74.17731
510.06        74.09888
510.50        74.16423
510.94        74.31015
511.38        74.46676
511.82        74.56781
512.26        74.58624
512.70        74.55656
513.14        74.49242
513.58        74.41348
514.02        74.33633
514.46        74.24937
514.90        74.19347
515.34         74.2373
515.78        74.38232
516.22        74.60324
516.66        74.81847
517.10        74.89416
517.54        74.80356
517.98        74.59358
518.42        74.33713
518.86         74.1542
519.30        74.08343
519.74        74.08861
520.18        74.15121
520.62        74.23838
521.06        74.33473
521.50        74.45985
521.93        74.58952
522.37        74.65636
522.81        74.65916
523.25        74.60085
523.69        74.53885
524.13        74.57317
524.57        74.71145
525.01        74.90839
525.45        75.08468
525.89        75.11176
526.32         74.9567
526.76        74.69612
527.20        74.37659
527.64        74.08533
528.08        73.86413
528.52        73.66489
528.96        73.53217
529.40        73.59945
529.83        73.82572
530.27        74.04395
530.71        74.18504
531.15        74.27528
531.59        74.29022
532.03        74.17052
532.46        73.95867
532.90        73.81955
533.34        73.77602
533.78         73.7487
534.22        73.71516
534.66        73.73083
535.09        73.73309
535.53        73.56741
535.97        73.28894
536.41          73.172
536.85        73.23971
537.28        73.34373
537.72        73.45821
538.16        73.59939
538.60        73.74462
539.04        73.88719
539.47        73.97975
539.91        74.00014
540.35         73.9311
540.79        73.78498
541.22        73.61384
541.66        73.52595
542.10        73.53636
542.54        73.62098
542.97        73.70927
543.41        73.72238
543.85        73.63265
544.29        73.47922
544.72        73.30791
545.16        73.23156
545.60        73.25937
546.04        73.36609
546.47         73.5138
546.91        73.63911
547.35         73.7148
547.79        73.74518
548.22        73.74561
548.66        73.75692
549.10        73.84693
549.53        73.89072
549.97        73.88384
550.41        73.72858
550.84        73.49599
551.28        73.40147
551.72        73.43425
552.15        73.48567
552.59        73.60722
553.03         73.3625
553.46        73.86866
553.90        73.82993
554.34        73.78234
554.77        73.72447
555.21        73.58297
555.65        73.57252
556.08        73.67232
556.52        73.80331
556.96        73.85555
557.39        73.97321
557.83        74.07102
558.27        73.77351
558.70         73.1984
559.14        72.96434
559.57        73.06857
560.01        73.11854
560.45        73.11826
560.88        73.27182
561.32        73.56203
561.75        73.90182
562.19        74.17865
562.63        73.99237
563.06        73.48452
563.50        73.31169
563.93        73.44251
564.37        73.62423
564.80        73.79425
565.24        73.62337
565.68        72.99344
566.11        73.67121
566.55        73.07738
566.98        72.58917
567.42        72.52534
567.85        72.70948
568.29        73.35291
568.72        73.61604
569.16        73.49712
569.60        74.17149
570.03        73.90427
570.47        74.10789
570.90        74.32271
571.34        73.58591
571.77        74.02634
572.21        74.03711
572.64        73.97002
573.08        74.21495
573.51        73.59505
573.95         73.5517
574.38        73.98051
574.82        74.03683
