SpectraSmart Spectrum 2.9.0.0
--------- Device Information -----------
Spectrum Name :  反射率_0
Saving Time :  2024/04/26 22:45:30
Spectro-Module Model Name : SE2030-DUVN
Spectro-Module Serial Number : OS361AC55029948
Wavelength Start : 200
Wavelength End : 1025
Wavelength Unit : Wavelength(nm)
Spectrum Unit : Reflectance(%)
-----------Spectrum Setting ------------
Integration Time : 20ms
Average : 10
Boxcar : 0
Background removal :  enabled
linearity correction :  enabled
SC :  disabled
Intensity correction :  disabled
DWT denoise :  enabled
savitzky-golay :  disabled
FFT :  disabled
Running average :  disabled
Kalman :  disabled
High pass :  disabled
---------------BEGIN--------------------
Wavelength(nm)             Reflectance(%)
200.29               0
200.75        48.18534
201.21        46.38462
201.67        45.05047
202.13        44.39641
202.58        44.30517
203.04        45.16031
203.50         47.1926
203.96        50.15311
204.42        53.71595
204.88        57.71625
205.34        61.48577
205.80        64.36417
206.26        65.79101
206.72        65.14129
207.18        63.72668
207.64        62.91952
208.10        62.82765
208.55        64.12218
209.01        64.28479
209.47        58.14999
209.93        47.81151
210.39        38.84297
210.85        34.10896
211.31        34.19614
211.77        39.34692
212.23        53.65016
212.69        92.49398
213.14        165.1549
213.60        174.5968
214.06        132.6009
214.52        100.0146
214.98         82.6907
215.44        72.15018
215.90        62.65606
216.36        54.51135
216.81        49.38474
217.27        47.99754
217.73        51.22292
218.19        58.36295
218.65        62.29589
219.11        59.69147
219.57        54.40939
220.02        51.01853
220.48        52.63387
220.94        59.10435
221.40        70.99311
221.86        87.34921
222.32        96.06503
222.77        88.09219
223.23        72.58839
223.69        58.48648
224.15        50.32488
224.61         46.7916
225.06        45.27561
225.52        44.99881
225.98         45.0734
226.44         45.1713
226.90          45.639
227.36         45.7489
227.81        44.29258
228.27         41.4964
228.73        37.84764
229.19        34.78306
229.65        33.93006
230.10        35.22376
230.56        38.05757
231.02        41.00534
231.48        41.77256
231.93         40.0203
232.39        36.98121
232.85        33.98724
233.31        32.76312
233.77        33.49948
234.22        35.55546
234.68        38.18774
235.14        40.38127
235.60        41.80521
236.05        42.89012
236.51        43.72127
236.97        44.39293
237.43          45.003
237.88        45.38078
238.34        45.96347
238.80        47.91169
239.26        51.78675
239.71        58.30219
240.17        66.78152
240.63        74.51936
241.08        79.50493
241.54        80.78442
242.00        80.75774
242.46        85.56708
242.91        99.71169
243.37        125.7531
243.83        164.6565
244.28        198.8481
244.74        201.7065
245.20        172.9844
245.66        135.9074
246.11         111.512
246.57        100.8256
247.03        97.66728
247.48        96.92858
247.94        91.71055
248.40        83.10176
248.85        75.28096
249.31        70.12704
249.77        67.68062
250.22         67.1207
250.68        67.43199
251.14        68.46725
251.59        69.83231
252.05         71.2367
252.51        73.33818
252.96        74.11472
253.42        72.18703
253.88        68.32449
254.33        63.23329
254.79        60.59581
255.25        63.45729
255.70         71.1202
256.16        82.03231
256.62        91.43344
257.07        92.18964
257.53        86.15202
257.99        77.88667
258.44        70.99479
258.90         68.5417
259.35         69.1693
259.81        71.58772
260.27         73.9517
260.72        74.12292
261.18        72.32999
261.63         69.3081
262.09        66.52544
262.55        64.89034
263.00        64.24472
263.46        64.26134
263.91        64.02779
264.37        62.78936
264.83        60.53539
265.28        57.70911
265.74        55.15565
266.19        53.56049
266.65        53.05165
267.11        53.20358
267.56        53.56686
268.02         53.4538
268.47        52.66385
268.93        51.46907
269.38        50.02477
269.84        48.62873
270.30        47.36992
270.75        46.12393
271.21        44.98985
271.66        44.06533
272.12        43.35116
272.57         42.8238
273.03        42.29351
273.48        41.42527
273.94        40.23886
274.39        38.82618
274.85        37.51039
275.31        36.59575
275.76        36.09531
276.22        35.91344
276.67        35.81511
277.13        35.56579
277.58        35.05296
278.04        34.38771
278.49        33.62381
278.95        32.96187
279.40        32.39501
279.86        31.93416
280.31        31.45557
280.77        30.89887
281.22        30.22652
281.68        29.54738
282.13        28.93584
282.59        28.57109
283.04        28.43835
283.50        28.49985
283.95        28.63369
284.41        28.66002
284.86        28.53515
285.32        28.34489
285.77        28.16996
286.22        28.19147
286.68        28.43292
287.13        28.78041
287.59        29.16477
288.04        29.43657
288.50          29.573
288.95        29.59302
289.41        29.53246
289.86        29.36953
290.32        29.17274
290.77        28.95737
291.22        28.81726
291.68        28.87272
292.13        29.15146
292.59        29.65824
293.04        30.37306
293.50         31.2696
293.95        32.31412
294.40        33.50971
294.86        34.82364
295.31        36.19608
295.77        37.61355
296.22        39.05608
296.68        40.54877
297.13        42.12487
297.58        43.79916
298.04        45.56041
298.49        47.37172
298.95        49.19637
299.40        51.00428
299.85          52.806
300.31        54.62249
300.76        56.46201
301.21        58.33379
301.67        60.24399
302.12         62.1354
302.58        64.01768
303.03        65.83938
303.48        67.63335
303.94        69.43862
304.39        71.23747
304.84        73.06404
305.30         74.9325
305.75        76.78397
306.20        78.62734
306.66        80.46357
307.11        82.23296
307.57        83.95201
308.02        85.53316
308.47        86.98613
308.93        88.33739
309.38        89.57202
309.83        90.78996
310.29        92.02311
310.74        93.25166
311.19        94.42752
311.65        95.44101
312.10        96.24928
312.55        96.87783
313.00        97.44569
313.46        98.14426
313.91        98.98517
314.36        99.93924
314.82        100.8533
315.27        101.4981
315.72        101.8043
316.18        101.8737
316.63        101.8393
317.08        101.9599
317.53        102.3056
317.99        102.7932
318.44        103.3326
318.89         103.742
319.35         103.965
319.80        104.0671
320.25        104.1171
320.70        104.2248
321.16        104.4202
321.61        104.7015
322.06         105.009
322.51        105.2613
322.97          105.42
323.42        105.5126
323.87        105.6271
324.32        105.9265
324.78        106.4004
325.23        107.0756
325.68        107.7034
326.13          107.89
326.59         107.562
327.04        106.8748
327.49        106.1673
327.94        106.0071
328.39        106.5234
328.85         107.512
329.30        108.7571
329.75        109.6047
330.20        109.8374
330.66        109.6095
331.11        109.2106
331.56        109.0377
332.01        109.2268
332.46         109.626
332.92        110.0736
333.37        110.4698
333.82        110.6991
334.27        110.8741
334.72        111.0075
335.17        111.0875
335.63        111.1344
336.08        111.1984
336.53        111.4025
336.98        112.0027
337.43        113.0307
337.88        114.3819
338.34         115.808
338.79        117.0073
339.24        117.7945
339.69        118.2401
340.14        118.3957
340.59        118.3795
341.05        118.2977
341.50        118.1285
341.95        117.9869
342.40        118.0454
342.85        118.3475
343.30        118.8642
343.75        119.5181
344.20        120.1543
344.66         120.708
345.11         121.199
345.56        121.5937
346.01        121.8561
346.46        122.0029
346.91        122.0521
347.36        122.0704
347.81        122.1813
348.26        122.3992
348.72        122.6624
349.17        122.9433
349.62        123.2317
350.07        123.4985
350.52        123.7768
350.97        123.8875
351.42        123.5491
351.87        122.7586
352.32        121.6205
352.77        120.5332
353.22        120.0769
353.67        120.3435
354.13        121.1609
354.58        122.0927
355.03        122.3627
355.48         121.775
355.93        120.5564
356.38        119.1885
356.83        118.3993
357.28        118.3328
357.73        118.7376
358.18        119.1771
358.63        118.9583
359.08        117.9194
359.53        116.3191
359.98         114.553
360.43        113.1816
360.88        112.3411
361.33        111.8587
361.78         111.475
362.23        110.7908
362.68        109.7206
363.13         108.423
363.58        107.1268
364.03        106.1611
364.48        105.5863
364.93         105.261
365.38        104.9919
365.83        104.4871
366.28        103.6687
366.73         102.646
367.18        101.5297
367.63        100.4838
368.08        99.56604
368.53         98.7222
368.98        97.94493
369.43        97.22278
369.88        96.54308
370.33        95.92865
370.78        95.33758
371.23        94.69424
371.68        93.98868
372.13        93.23015
372.58        92.49778
373.03        91.92331
373.48        91.51609
373.93        91.21561
374.38        90.90004
374.83         90.3848
375.28        89.62722
375.72        88.67227
376.17        87.66969
376.62         86.7346
377.07        85.92571
377.52        85.24222
377.97        84.65134
378.42        84.11102
378.87        83.61429
379.32         83.1488
379.77        82.81093
380.22        82.73609
380.67        82.90209
381.11        83.27168
381.56        83.51532
382.01        83.18334
382.46        82.22783
382.91        80.86503
383.36        79.49278
383.81        78.65365
384.26        78.43957
384.71        78.66535
385.15        79.11372
385.60        79.39571
386.05        79.37146
386.50        79.14894
386.95        78.75431
387.40        78.23569
387.85        77.64689
388.29        76.92896
388.74         76.2655
389.19        75.72079
389.64        75.30529
390.09        74.99822
390.54        74.74294
390.98        74.42268
391.43        74.05538
391.88        73.66687
392.33        73.30397
392.78        73.01417
393.23        72.80008
393.67        72.64536
394.12        72.56605
394.57        72.34942
395.02        72.02253
395.47        71.81281
395.91        71.72994
396.36        71.56371
396.81        71.34048
397.26         71.1892
397.71        71.07095
398.15        70.89609
398.60        70.74849
399.05        70.42876
399.50        70.03314
399.95        70.12708
400.39        70.55649
400.84        70.20835
401.29        69.19972
401.74        68.83413
402.18         69.0706
402.63        68.70815
403.08        67.86153
403.53        67.48737
403.97        67.62251
404.42        67.82405
404.87        67.95257
405.32        67.92765
405.76         67.6902
406.21        67.35321
406.66         67.0221
407.11        66.74271
407.55        66.63749
408.00        66.91205
408.45        67.41853
408.90        67.60989
409.34        67.36036
409.79        66.86379
410.24        66.29668
410.68        65.89017
411.13        65.71458
411.58         65.6666
412.03        65.65874
412.47        65.58251
412.92         65.3873
413.37        65.14481
413.81        64.92548
414.26        64.88975
414.71         65.0349
415.15        65.32555
415.60        65.64939
416.05        65.89001
416.49        66.00021
416.94          65.999
417.39        65.92792
417.83        65.84161
418.28        65.76856
418.73        65.69307
419.17         65.6228
419.62        65.57404
420.07        65.53906
420.51        65.49941
420.96        65.47672
421.41        65.41028
421.85        65.26897
422.30        65.23661
422.74        65.21949
423.19         64.9483
423.64        64.50719
424.08        64.45185
424.53        64.76042
424.98        64.94545
425.42        64.97481
425.87        65.17953
426.31         65.4809
426.76        65.40343
427.21        65.01866
427.65        64.81932
428.10        64.82022
428.54         64.7912
428.99        64.77672
429.44        64.65446
429.88        64.56031
430.33        65.10201
430.77        65.94871
431.22        66.30322
431.66        66.06693
432.11        65.42682
432.56         64.6821
433.00        64.57775
433.45         65.2235
433.89        65.85992
434.34        65.88006
434.78        66.78638
435.23         65.7291
435.67        64.36462
436.12         64.9267
436.57        65.15147
437.01         65.6897
437.46        65.83824
437.90        65.58772
438.35        65.34065
438.79        65.16757
439.24        65.08764
439.68        65.09704
440.13        65.17455
440.57        65.36271
441.02         65.6019
441.46        65.82063
441.91        66.34822
442.35        66.86774
442.80        66.54219
443.24        65.61207
443.69        65.51491
444.13        66.22207
444.58        66.63986
445.02         66.6756
445.47        66.80383
445.91        67.02502
446.36        67.23898
446.80        67.41944
447.24        67.50941
447.69        67.52652
448.13        67.55059
448.58        67.60629
449.02        67.64125
449.47        67.65355
449.91        67.61355
450.36        67.54195
450.80        67.43878
451.25        67.35311
451.69        67.29955
452.13        67.29964
452.58        67.33713
453.02        67.39178
453.47        67.43984
453.91        67.45694
454.36        67.44933
454.80        67.39262
455.24        67.20628
455.69        66.89681
456.13        66.58997
456.58        66.35891
457.02         65.8781
457.46        65.36012
457.91        65.54741
458.35        66.14896
458.79        66.16384
459.24        65.59838
459.68        64.79896
460.13        64.03521
460.57        64.10798
461.01         64.2567
461.46        64.55004
461.90        65.13001
462.34        65.98387
462.79        65.56844
463.23        65.64378
463.68        65.67666
464.12        65.40288
464.56         64.8344
465.01        64.20297
465.45        63.64351
465.89        63.42046
466.34        63.46836
466.78        63.67606
467.22        64.00096
467.67        63.39843
468.11        63.51351
468.55        63.34498
468.99        63.37067
469.44        63.27697
469.88        63.08625
470.32        62.97373
470.77        62.93153
471.21        62.88832
471.65        62.82803
472.10        62.78291
472.54        62.73992
472.98        62.66407
473.42        62.54491
473.87        62.47898
474.31        62.41278
474.75        62.14752
475.20        61.79214
475.64        61.73402
476.08        61.92844
476.52        61.91973
476.97         61.6686
477.41        61.48405
477.85         61.4538
478.29        61.28115
478.74        61.27835
479.18        61.67005
479.62        61.63985
480.06        61.70534
480.50        61.59818
480.95        61.41633
481.39        61.20332
481.83        61.19086
482.27        61.00511
482.72        61.43047
483.16        61.38432
483.60         61.4243
484.04        61.29537
484.48        61.53574
484.93        61.83789
485.37        61.37085
485.81        60.76101
486.25        60.04463
486.69        60.69399
487.14        62.59388
487.58        62.38245
488.02         61.2682
488.46        60.83914
488.90        60.28123
489.34        61.27005
489.79        62.25675
490.23        61.33309
490.67         60.9231
491.11        60.57079
491.55        60.45216
491.99        60.51387
492.43        60.38764
492.88        60.09695
493.32        59.98266
493.76         60.0691
494.20        60.15421
494.64        60.21489
495.08        60.35352
495.52        60.50365
495.96        60.47036
496.41         60.2803
496.85        60.16169
497.29        60.06619
497.73        60.15108
498.17        59.69078
498.61        59.69469
499.05        59.87299
499.49        60.05791
499.93        60.02763
500.37        59.78533
500.82        59.98833
501.26        60.00817
501.70        60.03548
502.14        60.13448
502.58        60.14332
503.02        60.21414
503.46         60.2843
503.90        60.34459
504.34        60.36576
504.78        60.31546
505.22        60.18954
505.66         60.0058
506.10        59.82201
506.54        59.65284
506.98        59.50304
507.42        59.50591
507.86         59.6727
508.30        59.27935
508.74        59.47686
509.18        59.35851
509.62        59.29852
510.06        59.26974
510.50        59.27505
510.94         59.4492
511.38         59.4663
511.82        59.53775
512.26        59.56798
512.70        59.57469
513.14        59.53948
513.58         59.5159
514.02        59.52854
514.46        59.41983
514.90        59.19357
515.34         59.6132
515.78         59.4797
516.22        59.72915
516.66        59.92517
517.10        59.96937
517.54        59.83014
517.98        59.56734
518.42        59.26878
518.86        59.04335
519.30        58.93406
519.74         58.9096
520.18        58.94821
520.62        59.01135
521.06        59.08263
521.50        59.18061
521.93        59.29001
522.37        59.36312
522.81        59.39653
523.25        59.38382
523.69         59.3602
524.13        59.39147
524.57        59.48059
525.01         59.5981
525.45        59.68478
525.89        59.64418
526.32        59.45702
526.76        59.18876
527.20        58.88905
527.64        58.63726
528.08        58.46748
528.52        58.35842
528.96        58.33282
529.40        58.42348
529.83        58.61549
530.27        58.89628
530.71        59.17699
531.15        59.32117
531.59        59.29718
532.03        59.13671
532.46        58.90784
532.90        58.76679
533.34        58.74268
533.78        58.76139
534.22        58.77891
534.66        58.79902
535.09        58.76121
535.53        58.55628
535.97        58.24212
536.41        58.05693
536.85        58.02901
537.28        58.03912
537.72        58.06848
538.16        58.13271
538.60        58.21606
539.04        58.31461
539.47        58.39732
539.91        58.45351
540.35        58.46716
540.79        58.44252
541.22        58.39901
541.66        58.39076
542.10        58.41997
542.54        58.46972
542.97        58.50798
543.41         58.5117
543.85        58.46656
544.29        58.39473
544.72        58.29784
545.16        58.21109
545.60        58.13563
546.04        58.07357
546.47        58.04708
546.91        58.08516
547.35        58.18302
547.79        58.32772
548.22        58.47763
548.66         58.5534
549.10        58.60223
549.53        58.61478
549.97         58.5985
550.41        58.44152
550.84        58.22034
551.28        58.09781
551.72        58.05096
552.15         58.0891
552.59        58.28446
553.03        57.78893
553.46        58.31578
553.90        58.30515
554.34        58.25175
554.77        58.16359
555.21        58.10806
555.65        58.14035
556.08        58.24422
556.52        58.38809
556.96        58.49368
557.39        58.54146
557.83        58.49848
558.27        58.19963
558.70        57.74615
559.14        57.54139
559.57        57.58521
560.01        57.60328
560.45        57.58199
560.88        57.69459
561.32        57.91053
561.75        58.03941
562.19        58.08088
562.63        58.00496
563.06         57.8782
563.50        57.97054
563.93        58.17206
564.37        58.20553
564.80        58.07901
565.24        57.85062
565.68        57.46283
566.11        57.97647
566.55        57.32706
566.98        57.25402
567.42        57.22449
567.85        57.30365
568.29         57.5011
568.72        57.82974
569.16        58.28648
569.60        58.47127
570.03        58.54494
570.47        58.65369
570.90        58.90783
571.34        58.32763
571.77        58.41686
572.21        58.86346
572.64        58.75817
573.08        58.97756
573.51        58.38002
573.95        58.18807
574.38        58.26664
574.82        58.87188
