SpectraSmart Spectrum 2.9.0.0
--------- Device Information -----------
Spectrum Name :  反射率_0
Saving Time :  2024/04/26 22:38:27
Spectro-Module Model Name : SE2030-DUVN
Spectro-Module Serial Number : OS361AC55029948
Wavelength Start : 200
Wavelength End : 1025
Wavelength Unit : Wavelength(nm)
Spectrum Unit : Reflectance(%)
-----------Spectrum Setting ------------
Integration Time : 20ms
Average : 10
Boxcar : 0
Background removal :  enabled
linearity correction :  enabled
SC :  disabled
Intensity correction :  disabled
DWT denoise :  enabled
savitzky-golay :  disabled
FFT :  disabled
Running average :  disabled
Kalman :  disabled
High pass :  disabled
---------------BEGIN--------------------
Wavelength(nm)             Reflectance(%)
200.29               0
200.75         50.8227
201.21        49.21741
201.67        48.31954
202.13        47.53629
202.58        46.59925
203.04        45.91936
203.50        45.97497
203.96        47.67888
204.42        51.48145
204.88        56.95139
205.34        62.57776
205.80         66.0183
206.26        66.39766
206.72        64.09968
207.18        60.94534
207.64        58.43734
208.10        56.60598
208.55        55.54737
209.01        53.63497
209.47         49.1567
209.93        43.92431
210.39        40.13853
210.85        38.91824
211.31        40.77253
211.77         46.5279
212.23        60.65329
212.69        96.04236
213.14        153.3139
213.60        146.5162
214.06        102.8528
214.52        75.27444
214.98         65.1825
215.44        63.66083
215.90        65.16733
216.36        68.44112
216.81        72.16615
217.27        76.07442
217.73        82.63848
218.19        89.25542
218.65        85.07515
219.11        70.94079
219.57        55.93233
220.02        47.17218
220.48        47.54056
220.94        55.88955
221.40        73.06656
221.86        98.70702
222.32        116.4148
222.77        111.0777
223.23         93.3039
223.69        74.39217
224.15        60.63897
224.61        51.63857
225.06        44.97751
225.52        40.73093
225.98        38.91322
226.44        39.01141
226.90        40.80294
227.36        43.18931
227.81        44.20002
228.27        43.54149
228.73        41.72959
229.19        39.95404
229.65        39.67069
230.10        40.89686
230.56         43.0506
231.02        45.07011
231.48        45.31073
231.93        43.57733
232.39        40.96739
232.85        38.42882
233.31        37.15557
233.77         37.3206
234.22        38.50406
234.68        40.35066
235.14        42.47741
235.60        44.69981
236.05        47.23132
236.51        49.81444
236.97        51.79469
237.43        52.87975
237.88         53.0629
238.34        52.81842
238.80        53.42807
239.26        55.46265
239.71        59.30394
240.17        64.51814
240.63        69.65912
241.08        73.66541
241.54        76.05332
242.00        78.18369
242.46        83.45973
242.91        94.87649
243.37        114.0497
243.83        142.1971
244.28        168.8302
244.74        175.4884
245.20        159.9479
245.66        136.5822
246.11        119.4874
246.57        110.2056
247.03        105.0882
247.48        100.8425
247.94        93.72911
248.40        85.55117
248.85        78.85121
249.31        75.07899
249.77        74.24132
250.22        75.72455
250.68         79.1055
251.14        83.87619
251.59        87.44259
252.05        88.11662
252.51        87.29119
252.96        85.00363
253.42        81.97678
253.88        78.75633
254.33        75.15725
254.79        73.68676
255.25        76.16153
255.70        81.93056
256.16        89.96879
256.62        96.69942
257.07        96.79353
257.53        91.82623
257.99         85.1322
258.44        79.25329
258.90        76.59271
259.35        75.99097
259.81        76.71174
260.27        77.41768
260.72        76.65446
261.18        74.73618
261.63        72.04121
262.09        69.76627
262.55        68.54272
263.00        68.15952
263.46        68.38838
263.91        68.35772
264.37        67.37817
264.83        65.41863
265.28        62.86105
265.74        60.51193
266.19        58.99319
266.65        58.44311
267.11        58.46602
267.56        58.65196
268.02        58.37934
268.47        57.46981
268.93        56.18098
269.38        54.66469
269.84        53.21432
270.30        51.91081
270.75        50.63714
271.21        49.46505
271.66        48.44221
272.12         47.5625
272.57        46.80494
273.03        46.03438
273.48         45.0044
273.94        43.75384
274.39        42.34549
274.85        41.03086
275.31         40.0015
275.76        39.26102
276.22        38.76584
276.67        38.36404
277.13         37.9474
277.58          37.418
278.04        36.84062
278.49        36.19307
278.95        35.57182
279.40        34.94612
279.86        34.37098
280.31        33.76409
280.77        33.13209
281.22        32.44351
281.68        31.77692
282.13         31.1843
282.59        30.82431
283.04         30.6725
283.50        30.70926
283.95        30.79904
284.41        30.74173
284.86        30.50027
285.32        30.17218
285.77        29.88396
286.22        29.88571
286.68         30.2038
287.13        30.69486
287.59        31.23191
288.04        31.57209
288.50        31.67586
288.95        31.59561
289.41        31.41265
289.86        31.16757
290.32        30.95011
290.77        30.75368
291.22        30.66182
291.68        30.78107
292.13        31.12793
292.59        31.70914
293.04        32.50056
293.50         33.4662
293.95         34.5717
294.40        35.82995
294.86        37.19833
295.31        38.60318
295.77        40.03676
296.22        41.48164
296.68        43.01607
297.13        44.75196
297.58        46.71354
298.04         48.8671
298.49        51.08535
298.95         53.1903
299.40        55.12063
299.85        56.92418
300.31        58.72862
300.76        60.70539
301.21         62.8972
301.67        65.26151
302.12        67.62445
302.58        69.82482
303.03        71.77988
303.48        73.59008
303.94         75.4183
304.39        77.42222
304.84        79.66731
305.30        82.09665
305.75        84.54079
306.20        86.84882
306.66        88.98798
307.11        90.95959
307.57        92.84426
308.02        94.63551
308.47        96.37641
308.93        98.06055
309.38        99.67439
309.83        101.3405
310.29        103.0784
310.74        104.8531
311.19         106.555
311.65        107.9651
312.10          109.01
312.55        109.7469
313.00        110.3488
313.46        111.0964
313.91        112.0332
314.36        113.1177
314.82        114.1962
315.27         115.037
315.72        115.5597
316.18        115.8707
316.63         116.084
317.08        116.4333
317.53        116.9817
317.99        117.6474
318.44        118.3395
318.89        118.8771
319.35        119.2043
319.80        119.3817
320.25        119.4976
320.70        119.6933
321.16        120.0067
321.61         120.444
322.06        120.9072
322.51        121.2493
322.97        121.4204
323.42        121.4658
323.87        121.5496
324.32        121.9641
324.78        122.7138
325.23        123.7931
325.68        124.8286
326.13        125.2133
326.59        124.8174
327.04        123.8673
327.49         122.823
327.94        122.4491
328.39        122.9296
328.85        123.9946
329.30        125.3872
329.75        126.3375
330.20        126.5856
330.66        126.3297
331.11        125.8766
331.56        125.6277
332.01        125.7363
332.46        126.0428
332.92        126.4208
333.37         126.864
333.82        127.2631
334.27        127.7052
334.72        128.1456
335.17        128.4721
335.63         128.669
336.08        128.8199
336.53        129.0586
336.98        129.6748
337.43        130.7129
337.88        132.0417
338.34        133.4417
338.79         134.683
339.24        135.5824
339.69        136.2121
340.14        136.5257
340.59        136.4756
341.05        136.1546
341.50        135.5999
341.95        135.0964
342.40        135.0764
342.85        135.6319
343.30        136.6483
343.75        137.8792
344.20        138.8878
344.66        139.5277
345.11        139.9007
345.56        140.0897
346.01        140.2493
346.46          140.45
346.91         140.641
347.36        140.8293
347.81        141.0532
348.26        141.3012
348.72        141.5537
349.17        141.8013
349.62        142.0578
350.07         142.308
350.52        142.5759
350.97         142.687
351.42        142.3721
351.87        141.6259
352.32        140.5431
352.77        139.5139
353.22         139.107
353.67        139.4029
354.13        140.2234
354.58        141.1197
355.03        141.2876
355.48        140.5392
355.93        139.1327
356.38        137.5741
356.83         136.626
357.28        136.4416
357.73        136.7442
358.18        137.1372
358.63        136.9877
359.08        136.1257
359.53         134.792
359.98        133.2377
360.43        131.8073
360.88        130.6091
361.33        129.5283
361.78        128.5181
362.23        127.5263
362.68        126.5408
363.13        125.6203
363.58        124.7483
364.03        123.8663
364.48        122.9513
364.93        121.9829
365.38        121.0088
365.83        120.1325
366.28        119.3711
366.73        118.6966
367.18        118.0015
367.63        117.1111
368.08        116.0024
368.53         114.749
368.98        113.4917
369.43        112.4472
369.88        111.6723
370.33         111.101
370.78        110.6391
371.23        110.1335
371.68        109.5258
372.13        108.8476
372.58        108.1326
373.03        107.4349
373.48        106.7582
373.93        106.0643
374.38        105.3087
374.83        104.4399
375.28        103.4628
375.72        102.4014
376.17        101.3725
376.62        100.4168
377.07         99.5695
377.52        98.84232
377.97        98.22965
378.42        97.73339
378.87        97.33984
379.32        97.00075
379.77        96.75068
380.22        96.63904
380.67        96.63393
381.11        96.74259
381.56        96.68217
382.01        96.10899
382.46        95.01923
382.91        93.59535
383.36        92.23656
383.81        91.48546
384.26        91.40958
384.71        91.81602
385.15        92.40723
385.60        92.65301
386.05        92.39684
386.50        91.80402
386.95        91.00364
387.40        90.20733
387.85        89.51397
388.29        88.80486
388.74        88.24216
389.19        87.82698
389.64        87.54308
390.09        87.38618
390.54        87.25891
390.98         86.9688
391.43        86.52737
391.88        85.98099
392.33        85.44296
392.78        85.03421
393.23        84.76973
393.67        84.68066
394.12        84.73936
394.57        84.45674
395.02        83.93147
395.47        83.83823
395.91        84.10555
396.36        83.99245
396.81        83.49111
397.26        83.02347
397.71        82.64914
398.15        82.26653
398.60         81.9856
399.05        81.70683
399.50        81.45823
399.95        81.40363
400.39        81.48415
400.84        81.34489
401.29        80.96423
401.74         80.5721
402.18        80.19232
402.63        79.65543
403.08        79.08952
403.53        78.74424
403.97        78.64545
404.42        78.71584
404.87        78.85972
405.32        78.88495
405.76        78.72902
406.21        78.58329
406.66        78.44417
407.11        78.11836
407.55        77.77096
408.00        77.77709
408.45        78.09955
408.90        78.43245
409.34        78.54942
409.79        78.09866
410.24        77.29851
410.68        76.90023
411.13        76.97739
411.58        77.09949
412.03         77.1294
412.47        77.04559
412.92         76.7865
413.37        76.40661
413.81        76.01659
414.26        75.84793
414.71        75.91161
415.15        76.16943
415.60        76.49628
416.05        76.75957
416.49        76.90347
416.94        76.94792
417.39        76.93302
417.83        76.90623
418.28        76.89268
418.73         76.8752
419.17        76.84388
419.62        76.79247
420.07        76.71161
420.51        76.58582
420.96        76.47995
421.41        76.39019
421.85        76.28809
422.30        76.35011
422.74         76.4192
423.19        76.14169
423.64        75.57874
424.08         75.3371
424.53        75.42242
424.98        75.45164
425.42        75.41286
425.87        75.70673
426.31        76.18831
426.76        76.05857
427.21        75.45411
427.65        75.36643
428.10        75.75844
428.54        75.88905
428.99        75.79059
429.44        75.64452
429.88        75.56243
430.33        75.98617
430.77        76.63181
431.22        76.78378
431.66        76.41028
432.11        75.93127
432.56        75.53948
433.00        75.56411
433.45        76.17275
433.89        76.82671
434.34        76.72074
434.78        78.34169
435.23        76.70732
435.67        74.41962
436.12        75.45023
436.57         75.7172
437.01        76.39736
437.46        76.69237
437.90        76.65559
438.35        75.66845
438.79        75.64526
439.24        75.77753
439.68         75.5881
440.13        75.90182
440.57        76.40974
441.02        76.63716
441.46        76.57245
441.91        77.32246
442.35        78.39678
442.80        78.00681
443.24        76.51873
443.69        76.35484
444.13        77.45144
444.58        77.98793
445.02        77.83015
445.47        77.78524
445.91         77.9475
446.36        78.14683
446.80        78.34378
447.24        78.71079
447.69         79.1734
448.13        78.77607
448.58        78.57378
449.02        78.63879
449.47        79.14079
449.91        79.19717
450.36        78.81409
450.80        78.45197
451.25        78.24591
451.69        78.15575
452.13          78.223
452.58        78.43286
453.02         78.6983
453.47        78.88681
453.91        78.94131
454.36         78.9006
454.80        78.75437
455.24        78.44543
455.69        77.99065
456.13        77.54342
456.58        77.24309
457.02        76.70898
457.46        76.12296
457.91        76.79641
458.35        77.32403
458.79        77.41968
459.24        76.74816
459.68        75.84035
460.13        75.04778
460.57         74.6897
461.01        74.92041
461.46         75.2891
461.90        75.70341
462.34        76.66813
462.79        76.49564
463.23        76.55804
463.68        76.32988
464.12        76.01714
464.56        75.58601
465.01        74.70911
465.45        73.68618
465.89        73.54653
466.34        74.07888
466.78        74.62693
467.22        74.52763
467.67        73.99688
468.11        73.96266
468.55        73.98991
468.99        74.28316
469.44         74.2356
469.88        73.85261
470.32        73.53946
470.77        73.35421
471.21        73.19598
471.65         73.0674
472.10        73.00816
472.54        73.00438
472.98        72.99142
473.42        72.94023
473.87        73.01582
474.31        73.08723
474.75        72.70498
475.20        72.03323
475.64        71.80813
476.08        72.12135
476.52         72.0451
476.97         71.5218
477.41        71.66508
477.85        72.17633
478.29        71.10925
478.74        71.77106
479.18        71.85989
479.62        71.97721
480.06        72.04505
480.50        71.97344
480.95        71.88711
481.39        71.74508
481.83        71.76167
482.27        71.54405
482.72        71.63306
483.16        71.43657
483.60        71.38545
484.04         71.5217
484.48        71.90606
484.93        72.03854
485.37        71.94598
485.81        71.09056
486.25        70.18137
486.69        69.83424
487.14        73.44423
487.58        73.28233
488.02        71.92963
488.46        70.44581
488.90        70.69628
489.34        71.67812
489.79        72.56197
490.23        71.77269
490.67        71.07099
491.11        70.46918
491.55        70.33789
491.99        70.63563
492.43        70.61592
492.88        70.27047
493.32        70.18406
493.76        70.37624
494.20        70.52028
494.64        70.59305
495.08        70.72453
495.52        70.82579
495.96        70.75509
496.41        70.53585
496.85        70.16682
497.29        69.71275
497.73        69.94701
498.17         69.8872
498.61        69.90721
499.05        69.73273
499.49        69.78706
499.93        69.82034
500.37        70.05804
500.82        70.32851
501.26        70.20117
501.70        69.78886
502.14        69.82598
502.58        70.27158
503.02        70.43521
503.46         70.2884
503.90        70.24129
504.34        70.28558
504.78         70.2205
505.22        70.03423
505.66         69.7872
506.10        69.59352
506.54        69.51431
506.98        69.47221
507.42        69.89721
507.86        69.86141
508.30        69.42135
508.74        69.77414
509.18        69.62284
509.62        69.44749
510.06        69.36378
510.50        69.40976
510.94        69.51465
511.38        69.61829
511.82        69.66465
512.26         69.6333
512.70         69.5523
513.14        69.45613
513.58        69.40701
514.02        69.43792
514.46        69.47149
514.90        69.47538
515.34        69.58062
515.78        69.81116
516.22        69.44149
516.66        69.72015
517.10        69.61665
517.54        69.50814
517.98        69.37524
518.42        69.24806
518.86        69.15126
519.30        69.08505
519.74        69.05354
520.18        69.05827
520.62        69.09883
521.06        69.17101
521.50        69.27876
521.93        69.39186
522.37        69.43887
522.81        69.41626
523.25         69.3343
523.69        69.24966
524.13        69.25633
524.57        69.36389
525.01        69.53126
525.45          69.686
525.89        69.71098
526.32        69.57337
526.76        69.33992
527.20        69.05423
527.64        68.79015
528.08         68.5811
528.52        68.40707
528.96        68.29585
529.40        68.28827
529.83        68.37749
530.27        68.56036
530.71        68.75445
531.15         68.8324
531.59        68.76665
532.03        68.58453
532.46        68.36096
532.90        68.26708
533.34        68.32521
533.78        68.44732
534.22         68.5543
534.66        68.61034
535.09        68.54106
535.53        68.23133
535.97        67.78848
536.41         67.5538
536.85        67.57532
537.28         67.6968
537.72        67.86216
538.16        68.03297
538.60         68.1721
539.04        68.28672
539.47        68.36375
539.91        68.42798
540.35        68.46716
540.79        68.47276
541.22        68.44084
541.66        68.39239
542.10        68.32961
542.54        68.26009
542.97         68.1797
543.41        68.11304
543.85        68.05049
544.29        67.98885
544.72        67.92993
545.16        67.89822
545.60        67.88661
546.04        67.95972
546.47        68.07275
546.91         68.0587
547.35        67.97729
547.79        67.99687
548.22        68.12273
548.66         68.4232
549.10        68.80154
549.53        68.63748
549.97        68.05375
550.41        67.69956
550.84        67.71109
551.28        67.79802
551.72        67.86361
552.15        68.05671
552.59        68.40047
553.03        67.78431
553.46        68.26203
553.90        68.10482
554.34         67.9097
554.77        67.89859
555.21        67.62623
555.65        67.71873
556.08         67.9677
556.52        68.16022
556.96        68.22124
557.39        68.34538
557.83         68.4696
558.27        68.16587
558.70        67.54617
559.14        67.25697
559.57        67.30524
560.01        67.23697
560.45        67.09317
560.88        67.27554
561.32        67.71287
561.75        67.99564
562.19        68.07554
562.63        67.93499
563.06        67.68144
563.50         67.7009
563.93        67.89882
564.37        67.95837
564.80        67.87392
565.24        67.65726
565.68        67.22755
566.11        67.85205
566.55        67.10357
566.98        66.98042
567.42        66.90219
567.85        66.88611
568.29        67.35503
568.72        67.67206
569.16        67.98413
569.60        68.20397
570.03        68.16994
570.47        68.30171
570.90        68.68439
571.34        67.76439
571.77        68.06201
572.21        68.83502
572.64        68.41627
573.08        68.60388
573.51        68.11274
573.95        67.99771
574.38        68.25658
574.82        68.57265
