SpectraSmart Spectrum 2.9.0.0
--------- Device Information -----------
Spectrum Name :  反射率_0
Saving Time :  2024/04/26 22:44:22
Spectro-Module Model Name : SE2030-DUVN
Spectro-Module Serial Number : OS361AC55029948
Wavelength Start : 200
Wavelength End : 1025
Wavelength Unit : Wavelength(nm)
Spectrum Unit : Reflectance(%)
-----------Spectrum Setting ------------
Integration Time : 20ms
Average : 10
Boxcar : 0
Background removal :  enabled
linearity correction :  enabled
SC :  disabled
Intensity correction :  disabled
DWT denoise :  enabled
savitzky-golay :  disabled
FFT :  disabled
Running average :  disabled
Kalman :  disabled
High pass :  disabled
---------------BEGIN--------------------
Wavelength(nm)             Reflectance(%)
200.29               0
200.75        48.93904
201.21        44.20513
201.67        40.72689
202.13        39.82114
202.58        41.34209
203.04        45.62105
203.50        51.62791
203.96        55.07056
204.42        53.11412
204.88        46.02245
205.34        37.44368
205.80         34.7874
206.26        39.31189
206.72        47.36499
207.18        54.95181
207.64        59.08861
208.10         59.9211
208.55        59.15822
209.01        56.19154
209.47        52.32312
209.93         50.1717
210.39        49.43031
210.85        50.43769
211.31        54.23936
211.77        62.47754
212.23        81.15188
212.69        127.3588
213.14        203.2505
213.60        196.7099
214.06        140.2043
214.52        102.6078
214.98        85.62376
215.44        78.04285
215.90        73.45588
216.36        70.77646
216.81        69.35938
217.27        69.17062
217.73        71.70158
218.19         76.1132
218.65        76.85207
219.11        72.73483
219.57        67.01041
220.02        63.80208
220.48         66.1419
220.94        73.78525
221.40        87.65211
221.86        106.5429
222.32        116.0378
222.77        105.7011
223.23        86.51411
223.69        69.07129
224.15        58.62791
224.61        53.67465
225.06        51.29995
225.52        50.59213
225.98        50.48014
226.44        50.59787
226.90        51.31909
227.36        51.95946
227.81        51.33668
228.27        49.54584
228.73         46.8511
229.19        44.59796
229.65        44.41077
230.10        46.17729
230.56        49.26819
231.02         52.0859
231.48        52.09372
231.93        49.07273
232.39        44.59719
232.85        40.22169
233.31        37.89669
233.77        37.86497
234.22        39.37807
234.68         41.8337
235.14        44.46932
235.60        46.92131
236.05        49.51751
236.51         51.8528
236.97        53.00732
237.43        52.69474
237.88        51.02546
238.34        48.85415
238.80        48.01856
239.26        49.30729
239.71        53.14298
240.17        59.27722
240.63        66.29231
241.08         72.9866
241.54        78.64637
242.00        84.42838
242.46        93.91472
242.91        110.5193
243.37        136.3464
243.83        171.2584
244.28        198.0518
244.74        192.9382
245.20        158.3651
245.66        119.2537
246.11        96.05271
246.57        88.95296
247.03        91.66945
247.48        98.81754
247.94        101.2349
248.40        97.68758
248.85        92.39636
249.31        88.05763
249.77        85.27061
250.22         83.4024
250.68        81.19221
251.14        77.94933
251.59        73.58447
252.05        69.55701
252.51        67.53315
252.96        66.63104
253.42        65.82006
253.88        64.88539
254.33        63.60612
254.79        64.05976
255.25        67.82965
255.70        74.35329
256.16        82.77772
256.62        89.36162
257.07        88.67268
257.53        82.68254
257.99        75.07558
258.44        68.81949
258.90        66.53369
259.35        66.90347
259.81        68.82757
260.27        70.64086
260.72        70.42239
261.18        68.42399
261.63         65.3285
262.09        62.44942
262.55        60.55369
263.00        59.52924
263.46        59.13395
263.91        58.63662
264.37        57.48388
264.83        55.64765
265.28        53.42606
265.74        51.50048
266.19        50.38838
266.65          50.175
267.11        50.49594
267.56        50.91927
268.02        50.77871
268.47        49.90582
268.93        48.58249
269.38        47.01526
269.84        45.57803
270.30        44.38532
270.75        43.29935
271.21        42.40697
271.66          41.787
272.12        41.40757
272.57        41.21996
273.03        40.98595
273.48        40.29478
273.94        39.15207
274.39        37.69628
274.85          36.255
275.31        35.14431
275.76        34.41348
276.22        33.97518
276.67        33.71054
277.13         33.5433
277.58        33.36102
278.04        33.20136
278.49         32.9426
278.95        32.52122
279.40        31.88972
279.86        31.15562
280.31        30.34394
280.77        29.60594
281.22        28.94873
281.68        28.40088
282.13        27.95833
282.59         27.6923
283.04        27.56301
283.50         27.5699
283.95        27.62193
284.41         27.5843
284.86        27.42301
285.32        27.19695
285.77        26.96873
286.22         26.8929
286.68        26.99382
287.13        27.18703
287.59        27.41019
288.04        27.52497
288.50        27.51864
288.95        27.40333
289.41        27.25532
289.86        27.11609
290.32        27.04593
290.77        27.03567
291.22         27.0802
291.68        27.15476
292.13        27.26508
292.59        27.45648
293.04        27.82196
293.50        28.51692
293.95        29.54906
294.40        30.86761
294.86        32.33044
295.31        33.70407
295.77         34.9413
296.22        36.09246
296.68        37.28421
297.13        38.70474
297.58        40.40647
298.04        42.32173
298.49        44.35115
298.95        46.36007
299.40        48.28671
299.85        50.17517
300.31        52.06392
300.76         53.9875
301.21         55.9692
301.67        58.00642
302.12         60.0554
302.58        62.14515
303.03        64.22994
303.48        66.34122
303.94        68.50337
304.39        70.67709
304.84        72.88659
305.30        75.14065
305.75        77.38895
306.20        79.65556
306.66        81.93495
307.11        84.15537
307.57        86.29723
308.02        88.21691
308.47        89.92422
308.93        91.47399
309.38        92.90248
309.83        94.39365
310.29        95.99699
310.74         97.6584
311.19        99.29555
311.65        100.7374
312.10        101.9066
312.55        102.8387
313.00         103.639
313.46        104.4825
313.91        105.3929
314.36        106.3597
314.82        107.2734
315.27        107.9782
315.72        108.4262
316.18        108.7032
316.63        108.9267
317.08        109.3308
317.53        109.9689
317.99        110.7573
318.44        111.5777
318.89         112.201
319.35        112.5587
319.80        112.7255
320.25        112.8003
320.70        112.9465
321.16        113.2154
321.61        113.6032
322.06        114.0398
322.51        114.4217
322.97        114.7025
323.42        114.9141
323.87        115.1624
324.32        115.6415
324.78        116.3355
325.23        117.2588
325.68        118.1028
326.13        118.3786
326.59        117.9889
327.04        117.1214
327.49        116.1841
327.94        115.8529
328.39        116.2944
328.85        117.2889
329.30        118.5939
329.75        119.4783
330.20        119.7035
330.66          119.44
331.11        119.0446
331.56        119.0118
332.01        119.4915
332.46         120.295
332.92        121.1378
333.37        121.7313
333.82        121.9025
334.27        121.8191
334.72        121.6345
335.17        121.5724
335.63        121.7218
336.08         122.081
336.53        122.6547
336.98        123.5042
337.43        124.5978
337.88        125.8741
338.34        127.1855
338.79          128.41
339.24        129.4032
339.69        130.1888
340.14        130.6654
340.59        130.7127
341.05        130.3995
341.50        129.7835
341.95        129.2059
342.40          129.18
342.85        129.8124
343.30        130.9684
343.75        132.3188
344.20        133.2938
344.66        133.7264
345.11        133.7674
345.56        133.6287
346.01        133.6614
346.46        133.9814
346.91        134.4846
347.36         135.047
347.81        135.5007
348.26        135.7868
348.72        135.9413
349.17        136.0797
349.62        136.4173
350.07        136.9694
350.52        137.6728
350.97        138.2124
351.42        138.0952
351.87        137.2725
352.32         135.947
352.77        134.6105
353.22        133.9753
353.67        134.1776
354.13        134.9893
354.58        136.0004
355.03        136.4709
355.48        136.1806
355.93        135.3408
356.38        134.2982
356.83         133.578
357.28        133.2916
357.73        133.2354
358.18        133.1407
358.63        132.6024
359.08        131.5362
359.53        130.1318
359.98        128.6132
360.43        127.2722
360.88        126.1935
361.33        125.2919
361.78        124.4865
362.23        123.6606
362.68        122.7821
363.13        121.8996
363.58        121.0495
364.03        120.2684
364.48        119.5497
364.93        118.8537
365.38        118.1321
365.83         117.332
366.28        116.4458
366.73        115.4957
367.18        114.5249
367.63        113.5929
368.08        112.7192
368.53         111.903
368.98        111.1137
369.43        110.2941
369.88        109.4371
370.33        108.5619
370.78        107.7297
371.23        107.0475
371.68        106.5322
372.13         106.133
372.58        105.7664
373.03        105.2999
373.48        104.6844
373.93        103.9476
374.38         103.111
374.83        102.2242
375.28        101.3193
375.72         100.371
376.17        99.46854
376.62        98.62067
377.07        97.85098
377.52        97.19575
377.97        96.63009
378.42        96.11964
378.87         95.6531
379.32         95.1888
379.77        94.82701
380.22          94.719
380.67         94.8433
381.11        95.17455
381.56        95.33804
382.01        94.82346
382.46        93.59304
382.91        91.90052
383.36        90.24261
383.81        89.29488
384.26        89.15965
384.71        89.60221
385.15        90.30201
385.60        90.69094
386.05        90.58208
386.50        90.14297
386.95        89.47503
387.40        88.74419
387.85        88.04713
388.29        87.28584
388.74        86.63742
389.19         86.1364
389.64        85.77401
390.09        85.52255
390.54        85.32721
390.98        85.06459
391.43        84.75082
391.88         84.4166
392.33        84.05317
392.78        83.64251
393.23        83.19972
393.67        82.70585
394.12        82.31525
394.57        82.06763
395.02        81.97903
395.47        82.05775
395.91        82.20329
396.36         82.1508
396.81        81.88609
397.26        81.52174
397.71        81.10503
398.15        80.73984
398.60        80.56316
399.05        80.21833
399.50        79.79784
399.95         80.0706
400.39        80.77996
400.84        80.33381
401.29        78.91547
401.74        78.40855
402.18        78.79241
402.63        78.44875
403.08        77.48188
403.53        77.07589
403.97        77.26419
404.42        77.50268
404.87        77.65888
405.32        77.67254
405.76        77.47346
406.21        77.23624
406.66        77.02423
407.11        76.66133
407.55        76.33772
408.00        76.63689
408.45        77.38499
408.90        77.63361
409.34        77.23274
409.79        76.61877
410.24         76.0014
410.68        75.55573
411.13        75.36378
411.58        75.33469
412.03         75.3801
412.47        75.38738
412.92        75.29195
413.37        75.15952
413.81        75.03594
414.26        75.06502
414.71        75.23577
415.15        75.51446
415.60        75.80183
416.05        76.02174
416.49         76.1399
416.94        76.16958
417.39        76.12454
417.83        76.01167
418.28         75.8549
418.73        75.65471
419.17        75.47243
419.62        75.40993
420.07        75.47227
420.51        75.60429
420.96        75.76198
421.41        75.78371
421.85        75.61726
422.30        75.47038
422.74        75.29327
423.19        74.95768
423.64        74.52787
424.08         74.3869
424.53        74.55008
424.98        74.70119
425.42        74.81181
425.87        75.22437
426.31        75.76267
426.76        75.56459
427.21        74.79951
427.65        74.60934
428.10         74.9628
428.54        75.02921
428.99         74.8559
429.44        74.63271
429.88        74.54111
430.33        75.20722
430.77         76.2546
431.22        76.69112
431.66        76.43208
432.11        75.90254
432.56        75.31046
433.00        75.19342
433.45        75.73166
433.89        76.03312
434.34        75.55943
434.78        77.41671
435.23        76.75953
435.67        75.09852
436.12        75.55911
436.57        75.50998
437.01        75.97622
437.46        76.20606
437.90        76.32664
438.35        74.91208
438.79        75.58788
439.24        75.46346
439.68        75.53437
440.13        75.95164
440.57        76.61664
441.02         76.5491
441.46        75.88914
441.91        76.45929
442.35        77.74046
442.80        77.45715
443.24        75.92928
443.69        75.77222
444.13        76.91548
444.58        77.42495
445.02        77.21085
445.47         77.2395
445.91        77.55123
446.36        77.83463
446.80        78.05875
447.24        78.32182
447.69        78.56537
448.13        78.55054
448.58        78.36257
449.02        78.35548
449.47        78.52474
449.91        78.49575
450.36        78.28696
450.80        78.14813
451.25        78.11781
451.69        77.97034
452.13          77.784
452.58        77.84784
453.02        78.09718
453.47        78.19424
453.91        78.09706
454.36        77.99726
454.80        77.92748
455.24        77.71624
455.69         77.3644
456.13        77.18559
456.58        77.30994
457.02        76.43383
457.46        76.52847
457.91        76.73253
458.35        77.28811
458.79        77.24387
459.24        76.62585
459.68        75.76706
460.13        74.94234
460.57        74.68052
461.01        75.16321
461.46        75.27229
461.90        75.43151
462.34        77.25987
462.79        76.12458
463.23        76.41694
463.68        76.58862
464.12        76.44604
464.56        75.89503
465.01        74.84372
465.45        73.69234
465.89        73.51057
466.34        74.09964
466.78        74.51891
467.22        74.69959
467.67        73.84157
468.11        74.05311
468.55        74.05595
468.99        74.35896
469.44        74.33015
469.88        73.97622
470.32         73.6906
470.77        73.53683
471.21        73.45403
471.65        73.43998
472.10        73.51963
472.54        73.63354
472.98         73.6434
473.42        73.51866
473.87        73.44988
474.31        73.34743
474.75        72.86716
475.20        72.25068
475.64        71.94363
476.08        72.59309
476.52        72.68059
476.97        72.31488
477.41        72.31118
477.85        72.82187
478.29        72.09737
478.74        72.50889
479.18        72.99725
479.62        72.53993
480.06        72.53413
480.50         72.4753
480.95        72.43189
481.39        72.39537
481.83        72.25557
482.27        72.02612
482.72         72.4005
483.16        72.45633
483.60        71.90331
484.04        72.42274
484.48        72.58806
484.93         72.5572
485.37        72.53265
485.81        71.30856
486.25        70.93443
486.69        71.95112
487.14        74.40858
487.58        73.15324
488.02        72.07427
488.46        71.39033
488.90        71.42331
489.34        72.61167
489.79        73.42721
490.23        72.89574
490.67        72.19115
491.11        71.40956
491.55        71.26652
491.99        71.68693
492.43        71.67556
492.88        71.22194
493.32        71.08166
493.76        71.27916
494.20        71.41325
494.64        71.45122
495.08        71.54626
495.52        71.65422
495.96        71.61354
496.41        71.45789
496.85         71.4072
497.29          71.352
497.73        71.42323
498.17        70.74107
498.61         70.5702
499.05        70.65766
499.49        70.77856
499.93        70.63611
500.37        70.81683
500.82         71.2132
501.26        71.21946
501.70        70.77345
502.14        71.46274
502.58        71.16274
503.02        71.22644
503.46        71.40088
503.90        71.52978
504.34        71.65559
504.78        71.61008
505.22        71.36528
505.66         71.0787
506.10        70.87476
506.54        70.55401
506.98        70.06786
507.42        70.98879
507.86        70.48286
508.30          70.717
508.74        70.82787
509.18        70.90638
509.62        70.92072
510.06        70.87711
510.50        70.80651
510.94        70.67722
511.38         70.5377
511.82        70.46701
512.26        70.48225
512.70        70.56799
513.14         70.6782
513.58        70.73534
514.02        70.72257
514.46        70.65112
514.90        70.55964
515.34        70.54592
515.78        70.63013
516.22        70.64397
516.66        70.78548
517.10        70.79701
517.54        70.73518
517.98        70.62174
518.42        70.48691
518.86         70.3722
519.30        70.29322
519.74        70.24005
520.18        70.21703
520.62        70.22936
521.06        70.27511
521.50        70.35876
521.93        70.45865
522.37        70.51458
522.81        70.52303
523.25        70.48992
523.69        70.45358
524.13        70.47958
524.57        70.57307
525.01        70.70245
525.45        70.81501
525.89        70.82655
526.32         70.7119
526.76        70.52564
527.20        70.29797
527.64        70.08184
528.08        69.90351
528.52        69.75034
528.96        69.64914
529.40        69.63951
529.83        69.71593
530.27        69.87282
530.71         70.0396
531.15        70.10903
531.59        70.05734
532.03        69.90938
532.46        69.71878
532.90        69.62311
533.34         69.6397
533.78        69.69036
534.22        69.72712
534.66         69.7635
535.09        69.73158
535.53         69.4962
535.97        69.12976
536.41         68.9229
536.85        68.91289
537.28        68.96132
537.72        69.04211
538.16        69.16575
538.60        69.30964
539.04        69.46495
539.47        69.60256
539.91         69.7243
540.35        69.80762
540.79        69.84916
541.22        69.84583
541.66        69.81876
542.10        69.77071
542.54         69.7099
542.97        69.62812
543.41         69.5437
543.85        69.44966
544.29        69.35123
544.72        69.26463
545.16        69.22501
545.60        69.22041
546.04        69.33521
546.47        69.51411
546.91        69.47039
547.35        69.28128
547.79        69.38004
548.22        69.71475
548.66        69.89316
549.10         69.9297
549.53        69.86358
549.97         69.7435
550.41        69.53569
550.84        69.32308
551.28        69.26745
551.72        69.33852
552.15        69.35101
552.59        69.32829
553.03        69.04974
553.46        69.57856
553.90        69.16679
554.34        69.34323
554.77        69.40373
555.21        69.28508
555.65        69.34664
556.08         69.4362
556.52        69.52648
556.96        69.56488
557.39        69.61807
557.83        69.66981
558.27        69.51354
558.70        69.19109
559.14        69.05857
559.57        69.09131
560.01        68.96401
560.45        68.75114
560.88        68.87717
561.32        69.28809
561.75        69.53167
562.19        69.56152
562.63        69.43096
563.06        69.22003
563.50        69.18398
563.93        69.25574
564.37        69.28432
564.80         69.2699
565.24         69.1138
565.68         68.7188
566.11        69.42683
566.55        68.75385
566.98         68.6911
567.42        68.62978
567.85         68.7323
568.29        69.27599
568.72        69.54533
569.16        69.67792
569.60        70.03233
570.03        70.04452
570.47        70.31045
570.90        70.67046
571.34        69.95207
571.77         70.1721
572.21        70.54293
572.64        69.97531
573.08         70.7225
573.51        69.71175
573.95        69.75333
574.38        70.18346
574.82        70.56625
