SpectraSmart Spectrum 2.9.0.0
--------- Device Information -----------
Spectrum Name :  反射率_0
Saving Time :  2024/04/26 22:43:56
Spectro-Module Model Name : SE2030-DUVN
Spectro-Module Serial Number : OS361AC55029948
Wavelength Start : 200
Wavelength End : 1025
Wavelength Unit : Wavelength(nm)
Spectrum Unit : Reflectance(%)
-----------Spectrum Setting ------------
Integration Time : 20ms
Average : 10
Boxcar : 0
Background removal :  enabled
linearity correction :  enabled
SC :  disabled
Intensity correction :  disabled
DWT denoise :  enabled
savitzky-golay :  disabled
FFT :  disabled
Running average :  disabled
Kalman :  disabled
High pass :  disabled
---------------BEGIN--------------------
Wavelength(nm)             Reflectance(%)
200.29               0
200.75        34.20156
201.21        33.11178
201.67        32.29522
202.13         32.6287
202.58        34.23062
203.04        37.11433
203.50        41.41758
203.96        46.45965
204.42        51.10363
204.88        54.98506
205.34        56.97662
205.80        56.08342
206.26        52.71022
206.72        47.67512
207.18        42.79554
207.64        39.14022
208.10        36.37359
208.55        34.14571
209.01        31.79097
209.47        29.74209
209.93         28.9831
210.39        29.48474
210.85          30.554
211.31        32.03609
211.77        34.46908
212.23        39.43541
212.69        51.94326
213.14        76.76864
213.60        80.95683
214.06        67.56643
214.52         56.9988
214.98        51.64033
215.44        48.71351
215.90        46.32432
216.36        44.49026
216.81        43.44201
217.27        43.70051
217.73        46.17671
218.19        50.84824
218.65        54.44235
219.11        54.70022
219.57        52.57104
220.02        51.60548
220.48         55.0839
220.94        63.39323
221.40        78.01134
221.86        97.26633
222.32        105.2363
222.77        91.84742
223.23        69.51375
223.69        51.12216
224.15        43.16201
224.61        42.88638
225.06        46.07465
225.52        49.96677
225.98        51.75448
226.44        51.22393
226.90        49.54787
227.36        47.35387
227.81        45.61374
228.27        44.80203
228.73        44.33245
229.19        44.18761
229.65        44.41197
230.10         44.9318
230.56        45.90543
231.02        46.84636
231.48        46.94751
231.93         46.1063
232.39        44.77412
232.85        43.70022
233.31        43.98258
233.77        45.61832
234.22        48.19895
234.68        50.80151
235.14        52.04988
235.60         51.5654
236.05        49.76226
236.51        47.17183
236.97        45.06432
237.43        44.11485
237.88        44.12653
238.34        44.99652
238.80        46.69437
239.26        49.28973
239.71         53.5429
240.17        59.11111
240.63        64.66817
241.08        69.13842
241.54        71.43356
242.00        72.98087
242.46        77.84414
242.91        89.18629
243.37         108.982
243.83        137.3173
244.28        159.5167
244.74        155.6316
245.20         127.395
245.66         95.5825
246.11        77.54829
246.57        73.27469
247.03         77.2424
247.48        83.38284
247.94        81.90694
248.40        73.51292
248.85         64.0769
249.31        56.95235
249.77         53.2498
250.22        52.20066
250.68        52.62804
251.14        54.42379
251.59        57.08111
252.05        59.83709
252.51        62.89392
252.96        64.52377
253.42        63.65106
253.88        61.00956
254.33          57.276
254.79        55.26959
255.25        57.21391
255.70        62.70275
256.16        70.65471
256.62        77.92902
257.07        79.62273
257.53        76.70355
257.99         71.9872
258.44        67.76678
258.90        66.29815
259.35         66.6161
259.81        68.04649
260.27        69.29715
260.72        68.90688
261.18        67.18429
261.63        64.59879
262.09        62.35446
262.55        61.15025
263.00        60.80296
263.46        61.04063
263.91        61.06304
264.37        60.21705
264.83        58.46968
265.28        56.19549
265.74        54.07729
266.19        52.61169
266.65        51.92757
267.11        51.67841
267.56        51.61202
268.02         51.3541
268.47        50.77162
268.93        50.03865
269.38        49.10775
269.84          47.961
270.30        46.62791
270.75        45.09917
271.21        43.65065
271.66        42.64614
272.12        42.14332
272.57        42.01695
273.03        41.95115
273.48         41.4131
273.94        40.36475
274.39        38.97466
274.85        37.62165
275.31        36.68432
275.76        36.20178
276.22        36.04355
276.67        35.99006
277.13        35.83676
277.58        35.46272
278.04        34.97041
278.49        34.35569
278.95        33.73043
279.40         33.0798
279.86        32.45359
280.31        31.79334
280.77        31.13253
281.22        30.45289
281.68        29.83382
282.13        29.30611
282.59        28.99182
283.04        28.85858
283.50        28.87636
283.95        28.94933
284.41        28.94156
284.86        28.81015
285.32        28.62027
285.77        28.40101
286.22        28.25946
286.68        28.22071
287.13        28.21742
287.59        28.25022
288.04         28.2751
288.50        28.29882
288.95        28.30589
289.41        28.30246
289.86         28.2255
290.32        28.11316
290.77        27.97817
291.22         27.8869
291.68        27.92117
292.13        28.10088
292.59        28.43784
293.04        28.92631
293.50        29.56923
293.95        30.35224
294.40        31.28174
294.86        32.34673
295.31         33.5166
295.77        34.78475
296.22        36.13199
296.68        37.56341
297.13        39.07616
297.58        40.67773
298.04        42.37023
298.49         44.1346
298.95        45.96141
299.40        47.82907
299.85        49.73602
300.31         51.6974
300.76        53.71597
301.21        55.79477
301.67        57.94116
302.12        60.08755
302.58        62.22344
303.03        64.29649
303.48        66.34275
303.94         68.4173
304.39        70.53268
304.84        72.72368
305.30        74.98752
305.75        77.24921
306.20        79.48986
306.66        81.70488
307.11        83.85292
307.57        85.94095
308.02        87.86538
308.47        89.64072
308.93         91.2903
309.38        92.85612
309.83        94.53285
310.29        96.35899
310.74        98.28266
311.19        100.1404
311.65        101.6297
312.10        102.6632
312.55        103.3249
313.00        103.8664
313.46        104.6876
313.91        105.8505
314.36        107.2694
314.82        108.6904
315.27        109.7137
315.72        110.2203
316.18        110.3724
316.63        110.3805
317.08        110.6266
317.53         111.212
317.99        112.0041
318.44        112.8598
318.89        113.5136
319.35        113.8802
319.80         114.055
320.25         114.133
320.70        114.2619
321.16        114.4921
321.61        114.8229
322.06        115.1934
322.51        115.5204
322.97         115.768
323.42        115.9689
323.87        116.2347
324.32        116.7667
324.78        117.5478
325.23        118.5879
325.68        119.5688
326.13        119.9815
326.59        119.7156
327.04        118.9574
327.49        118.1026
327.94        117.8172
328.39        118.2649
328.85         119.217
329.30        120.4561
329.75        121.2947
330.20        121.5066
330.66        121.2634
331.11        120.8718
331.56        120.7368
332.01        120.9995
332.46        121.5042
332.92         122.066
333.37        122.5675
333.82        122.8784
334.27        123.1109
334.72         123.309
335.17        123.5142
335.63        123.7523
336.08        124.0621
336.53        124.5041
336.98         125.239
337.43        126.2736
337.88        127.5222
338.34        128.8072
338.79        129.9639
339.24        130.8378
339.69         131.471
340.14         131.822
340.59        131.8545
341.05        131.6494
341.50        131.2399
341.95        130.8604
342.40        130.8637
342.85        131.3292
343.30        132.1654
343.75         133.183
344.20         134.046
344.66        134.6354
345.11        135.0233
345.56        135.2586
346.01         135.433
346.46        135.6082
346.91        135.7773
347.36        135.9512
347.81        136.1701
348.26        136.4308
348.72         136.692
349.17          137.01
349.62        137.5088
350.07         138.166
350.52        138.9552
350.97        139.5347
351.42        139.3661
351.87        138.4012
352.32        136.8427
352.77        135.2662
353.22         134.515
353.67        134.7467
354.13        135.7086
354.58        136.8796
355.03        137.3284
355.48        136.8041
355.93        135.5907
356.38        134.1876
356.83         133.347
357.28        133.2238
357.73        133.5365
358.18        133.8826
358.63        133.6351
359.08        132.6422
359.53        131.1599
359.98        129.4979
360.43        128.0805
360.88        127.0269
361.33         126.201
361.78        125.4811
362.23        124.6911
362.68        123.7827
363.13        122.8373
363.58         121.904
364.03        121.0329
364.48         120.224
364.93        119.4238
365.38        118.6053
365.83        117.7511
366.28        116.8611
366.73        115.9619
367.18        115.0399
367.63        114.0636
368.08        113.0397
368.53         111.985
368.98        110.9757
369.43        110.1257
369.88        109.4563
370.33        108.9388
370.78        108.4734
371.23        107.8984
371.68        107.1699
372.13        106.3177
372.58        105.4523
373.03        104.7532
373.48        104.2451
373.93        103.8588
374.38        103.4406
374.83        102.7578
375.28        101.7715
375.72        100.5565
376.17        99.33592
376.62         98.3158
377.07        97.56906
377.52        97.05833
377.97        96.68241
378.42        96.29095
378.87        95.83453
379.32        95.31464
379.77        94.86881
380.22        94.69513
380.67        94.78992
381.11        95.11476
381.56        95.28008
382.01        94.75639
382.46          93.502
382.91        91.77647
383.36        90.10715
383.81        89.21085
384.26        89.19032
384.71        89.79568
385.15        90.64559
385.60        91.07132
386.05        90.86756
386.50        90.23675
386.95        89.35718
387.40        88.51652
387.85          87.831
388.29        87.15173
388.74        86.59978
389.19        86.12845
389.64        85.71516
390.09        85.37871
390.54        85.06876
390.98        84.66779
391.43        84.21189
391.88        83.72855
392.33        83.28277
392.78        82.94666
393.23        82.72364
393.67        82.59827
394.12        82.59341
394.57        82.43468
395.02        82.16282
395.47        82.12067
395.91        82.24094
396.36        82.07011
396.81        81.61796
397.26        81.14409
397.71        80.71806
398.15        80.34637
398.60        80.14301
399.05          79.929
399.50        79.74368
399.95        79.87655
400.39        80.21978
400.84        80.16496
401.29        79.69366
401.74        79.29639
402.18        78.99644
402.63        78.41997
403.08        77.72854
403.53        77.34352
403.97        77.30782
404.42        77.49424
404.87        77.74176
405.32        77.77093
405.76        77.50078
406.21        77.13001
406.66        76.76416
407.11        76.39504
407.55        76.18553
408.00        76.44678
408.45        77.02302
408.90        77.27741
409.34        77.04377
409.79        76.47805
410.24        75.79524
410.68        75.34777
411.13        75.21545
411.58         75.2198
412.03        75.24249
412.47        75.15934
412.92        74.90681
413.37         74.5694
413.81        74.24325
414.26         74.1329
414.71        74.24421
415.15        74.53918
415.60        74.89117
416.05        75.16944
416.49        75.31964
416.94        75.35779
417.39        75.33867
417.83        75.33607
418.28        75.37772
418.73        75.43795
419.17        75.48493
419.62         75.4754
420.07        75.39553
420.51        75.24659
420.96        75.10959
421.41        75.01975
421.85        74.95817
422.30        75.04907
422.74        75.14803
423.19         74.9976
423.64        74.63129
424.08        74.47192
424.53        74.54678
424.98        74.61887
425.42        74.69819
425.87        74.96028
426.31        75.31367
426.76        75.37948
427.21        75.18544
427.65        75.04371
428.10        74.98643
428.54        74.97604
428.99        75.06514
429.44         74.9912
429.88        74.88402
430.33        75.44196
430.77        76.31646
431.22        76.63886
431.66        76.31496
432.11        75.63423
432.56        74.88419
433.00        74.75176
433.45        75.49804
433.89        76.38395
434.34        76.46338
434.78        78.40644
435.23        76.75004
435.67        74.23878
436.12        75.76818
436.57        75.86272
437.01         76.1275
437.46        76.23048
437.90        76.27226
438.35        75.46004
438.79        75.71388
439.24         75.6284
439.68        75.72326
440.13        76.06815
440.57        76.61427
441.02        76.76803
441.46        76.57258
441.91        77.15872
442.35        78.09962
442.80        77.93025
443.24        76.90087
443.69        76.75689
444.13        77.40945
444.58        78.18129
445.02        77.69891
445.47        77.86089
445.91        78.26062
446.36        78.56281
446.80        78.72335
447.24        78.85087
447.69        78.96458
448.13        79.03963
448.58        79.09896
449.02        79.10897
449.47        79.09433
449.91        79.06353
450.36        79.04828
450.80        79.03017
451.25         79.0291
451.69        79.00868
452.13        78.98238
452.58        78.94479
453.02        78.91643
453.47        78.93866
453.91         79.0003
454.36         79.1041
454.80        79.19982
455.24        79.04314
455.69        78.60765
456.13        78.24811
456.58        78.18027
457.02        77.10043
457.46        77.28407
457.91        77.42648
458.35        77.86731
458.79        77.80236
459.24        77.27847
459.68         76.4818
460.13        75.66379
460.57        75.46576
461.01        76.08958
461.46        75.64877
461.90        76.44569
462.34        77.48548
462.79        77.14878
463.23        77.29962
463.68         77.2141
464.12        76.90411
464.56        76.35853
465.01         75.6345
465.45         74.9133
465.89        74.70995
466.34        74.91125
466.78        75.17059
467.22        75.42171
467.67        74.75837
468.11        74.65359
468.55        74.64802
468.99         75.0489
469.44        75.06133
469.88        74.67479
470.32        74.35001
470.77        74.16592
471.21        74.05964
471.65        74.03758
472.10        74.11598
472.54        74.23963
472.98        74.28707
473.42        74.21595
473.87        74.21202
474.31        74.18562
474.75        73.74383
475.20        73.06177
475.64        72.90463
476.08        73.26916
476.52        73.23981
476.97        72.72626
477.41        72.99115
477.85        73.18497
478.29        72.59244
478.74        73.10352
479.18        73.38336
479.62        73.44259
480.06        73.40644
480.50         73.2545
480.95        73.12116
481.39        73.11256
481.83        72.55843
482.27        72.85067
482.72        72.94951
483.16        72.99314
483.60         73.0452
484.04        73.00843
484.48        73.28745
484.93        73.55865
485.37        72.81502
485.81        72.55166
486.25        71.91871
486.69        72.11752
487.14        74.94255
487.58        74.31311
488.02        73.18133
488.46         72.4247
488.90        72.17258
489.34        74.04243
489.79         74.3717
490.23        73.37159
490.67        72.54366
491.11        72.14186
491.55        72.04807
491.99        72.18208
492.43        72.10113
492.88        71.79497
493.32        71.72533
493.76        71.90787
494.20        72.06047
494.64        72.14916
495.08        72.29141
495.52         72.4321
495.96         72.3899
496.41        72.18771
496.85        72.07843
497.29        71.97884
497.73         71.9707
498.17        71.21785
498.61        71.21761
499.05        71.62718
499.49        71.84491
499.93        71.59349
500.37        71.65479
500.82         71.9297
501.26        72.00657
501.70        71.89709
502.14        71.90532
502.58        72.04453
503.02        72.13422
503.46        72.16904
503.90        72.24969
504.34        72.32469
504.78        72.26311
505.22        72.05347
505.66         71.7449
506.10        71.44279
506.54        71.25514
506.98        71.20465
507.42        71.35731
507.86        71.65825
508.30        71.46291
508.74        71.60966
509.18        71.43967
509.62        71.27391
510.06        71.18885
510.50        71.21582
510.94        71.30615
511.38        71.41677
511.82        71.50614
512.26        71.55455
512.70        71.58332
513.14        71.59265
513.58        71.58006
514.02        71.55224
514.46        71.50188
514.90        71.45712
515.34        71.47531
515.78        71.56232
516.22        71.66619
516.66        71.79741
517.10        71.83007
517.54        71.76469
517.98        71.62754
518.42        71.45882
518.86        71.32317
519.30         71.2422
519.74        71.19819
520.18        71.18412
520.62        71.18549
521.06         71.1979
521.50        71.23664
521.93        71.29089
522.37        71.31751
522.81        71.31853
523.25        71.29112
523.69        71.27464
524.13        71.33714
524.57        71.47852
525.01        71.66419
525.45        71.81951
525.89        71.82567
526.32        71.65257
526.76        71.36726
527.20        71.02958
527.64        70.73906
528.08        70.53472
528.52        70.39307
528.96        70.32172
529.40        70.32839
529.83        70.39938
530.27        70.54004
530.71        70.69343
531.15        70.77319
531.59        70.75958
532.03        70.66673
532.46        70.53455
532.90         70.4821
533.34        70.52035
533.78        70.57536
534.22        70.60724
534.66        70.64211
535.09        70.61632
535.53        70.39196
535.97        70.03413
536.41        69.82636
536.85        69.80231
537.28        69.81878
537.72        69.86793
538.16        69.98914
538.60          70.163
539.04        70.37727
539.47        70.55815
539.91        70.63811
540.35        70.59075
540.79        70.43921
541.22        70.25648
541.66        70.18679
542.10        70.25054
542.54        70.40398
542.97        70.56175
543.41        70.62022
543.85        70.54603
544.29        70.39484
544.72        70.20543
545.16        70.07372
545.60        70.01241
546.04        70.00517
546.47        70.06079
546.91        70.16682
547.35        70.31333
547.79        70.54018
548.22        70.76746
548.66        70.81717
549.10        70.74525
549.53        70.57451
549.97        70.37535
550.41        70.10625
550.84        69.87985
551.28        69.86939
551.72        70.00616
552.15        70.15665
552.59        70.48907
553.03        69.92726
553.46        70.60013
553.90        70.52586
554.34        70.29013
554.77        70.30135
555.21        70.16047
555.65        69.92873
556.08        70.21851
556.52        70.38629
556.96        70.55983
557.39        70.65664
557.83         70.6405
558.27        70.40511
558.70        69.91324
559.14         69.7008
559.57        69.72796
560.01        69.68906
560.45        69.58421
560.88        69.69028
561.32        69.97544
561.75        70.07394
562.19        70.02248
562.63        70.05592
563.06        70.17311
563.50        70.27828
563.93         70.2829
564.37         70.2564
564.80        70.22961
565.24        70.05661
565.68        69.63696
566.11        70.29804
566.55        69.52653
566.98        69.39572
567.42        69.34011
567.85        69.37947
568.29        70.07243
568.72         70.3968
569.16        70.61766
569.60         70.6489
570.03        70.70324
570.47        70.88838
570.90        71.38418
571.34        70.08351
571.77        70.94601
572.21        71.16502
572.64          71.103
573.08         71.4874
573.51        70.76166
573.95        70.71754
574.38        71.13854
574.82        71.04972
