SpectraSmart Spectrum 2.9.0.0
--------- Device Information -----------
Spectrum Name :  反射率_0
Saving Time :  2024/04/26 22:33:17
Spectro-Module Model Name : SE2030-DUVN
Spectro-Module Serial Number : OS361AC55029948
Wavelength Start : 200
Wavelength End : 1025
Wavelength Unit : Wavelength(nm)
Spectrum Unit : Reflectance(%)
-----------Spectrum Setting ------------
Integration Time : 20ms
Average : 10
Boxcar : 0
Background removal :  enabled
linearity correction :  enabled
SC :  disabled
Intensity correction :  disabled
DWT denoise :  enabled
savitzky-golay :  disabled
FFT :  disabled
Running average :  disabled
Kalman :  disabled
High pass :  disabled
---------------BEGIN--------------------
Wavelength(nm)             Reflectance(%)
200.29               0
200.75        47.36727
201.21        48.31396
201.67        48.86963
202.13        48.56951
202.58        47.32114
203.04        45.34223
203.50        43.01835
203.96         41.7729
204.42        42.65949
204.88         45.4819
205.34        49.19097
205.80        51.63528
206.26        51.94402
206.72        50.67273
207.18        48.74276
207.64        46.77273
208.10        44.76036
208.55        42.63983
209.01        39.71299
209.47        37.03722
209.93        36.24245
210.39        36.98508
210.85        38.92799
211.31        42.69661
211.77        49.86317
212.23         65.3659
212.69        103.2549
213.14        166.2753
213.60        162.4146
214.06          116.84
214.52        86.22811
214.98        72.52533
215.44        66.60481
215.90        62.99937
216.36        61.03728
216.81        60.51932
217.27        61.50896
217.73        65.50356
218.19        70.78757
218.65        69.29308
219.11         60.6623
219.57        51.09697
220.02        45.61566
220.48        46.66751
220.94        53.70882
221.40         67.5391
221.86         88.1537
222.32        103.2771
222.77        100.6683
223.23        87.90105
223.69        73.72189
224.15        63.23113
224.61        56.20021
225.06        50.78081
225.52        46.99784
225.98        44.62966
226.44        43.35865
226.90        43.17413
227.36        43.47961
227.81        43.28846
228.27        42.50311
228.73        41.18615
229.19        40.15294
229.65        40.39986
230.10        41.85672
230.56        44.20177
231.02        46.14082
231.48        45.67467
231.93         42.7274
232.39        38.54274
232.85        34.77209
233.31        33.53699
233.77        34.97543
234.22        38.28759
234.68        42.25366
235.14        45.05872
235.60        46.10915
236.05        45.93665
236.51        44.93459
236.97         43.9772
237.43        43.56827
237.88        43.49655
238.34        43.80585
238.80        44.87069
239.26        46.88945
239.71        50.40348
240.17        55.39653
240.63        61.29116
241.08        67.46606
241.54        73.25507
242.00        78.66848
242.46         84.8763
242.91        93.52222
243.37        104.5738
243.83        119.1183
244.28        134.0922
244.74        140.7769
245.20        137.1615
245.66        127.1603
246.11        114.7321
246.57        101.6931
247.03         87.4774
247.48        74.17072
247.94        67.21004
248.40        67.23807
248.85        70.47665
249.31        74.33246
249.77        76.61193
250.22        77.14243
250.68         76.3848
251.14        74.29774
251.59        71.53978
252.05        69.36874
252.51        68.14066
252.96         66.9416
253.42        65.18078
253.88        62.86161
254.33        60.15852
254.79        58.88132
255.25        60.09239
255.70        63.39105
256.16        68.20316
256.62        72.05265
257.07        71.42156
257.53         67.5713
257.99        62.68084
258.44        58.66616
258.90         57.4166
259.35         57.9402
259.81        59.60531
260.27        61.02577
260.72        60.59083
261.18        58.62593
261.63         55.7341
262.09        53.25373
262.55        52.09763
263.00        52.07644
263.46        52.78551
263.91        53.31675
264.37        52.82162
264.83        51.24762
265.28        49.03506
265.74        46.93661
266.19        45.57559
266.65        45.09073
267.11        45.11374
267.56        45.31155
268.02        45.17498
268.47        44.55929
268.93        43.69346
269.38        42.66405
269.84        41.64347
270.30        40.69102
270.75        39.71813
271.21        38.85878
271.66        38.27819
272.12        37.97421
272.57        37.86932
273.03        37.72021
273.48        37.11988
273.94        36.05902
274.39        34.67184
274.85        33.28096
275.31        32.19487
275.76        31.46835
276.22        31.03434
276.67         30.7444
277.13        30.46939
277.58        30.11296
278.04        29.72864
278.49        29.31057
278.95        28.95693
279.40        28.62145
279.86        28.32338
280.31        27.92864
280.77        27.35397
281.22        26.58419
281.68        25.74571
282.13        24.96156
282.59        24.46511
283.04        24.26086
283.50         24.2912
283.95        24.43776
284.41        24.51732
284.86         24.4709
285.32        24.36968
285.77         24.2553
286.22        24.24564
286.68        24.35676
287.13        24.50128
287.59        24.64384
288.04        24.69855
288.50        24.66241
288.95          24.545
289.41        24.37754
289.86        24.13883
290.32        23.88419
290.77        23.63243
291.22        23.44956
291.68        23.41615
292.13        23.54924
292.59        23.84753
293.04        24.31009
293.50        24.94541
293.95        25.72371
294.40         26.6317
294.86        27.60209
295.31         28.5249
295.77         29.3816
296.22        30.18568
296.68        31.00146
297.13        31.92334
297.58        32.98525
298.04        34.16169
298.49        35.41259
298.95        36.69049
299.40         37.9605
299.85        39.23371
300.31        40.51956
300.76        41.81392
301.21        43.12616
301.67        44.47814
302.12        45.82455
302.58        47.17152
303.03        48.49181
303.48        49.81333
303.94        51.21559
304.39        52.76334
304.84        54.48064
305.30        56.34767
305.75         58.2303
306.20        59.99806
306.66        61.62965
307.11        63.13261
307.57        64.59946
308.02         66.0881
308.47        67.63468
308.93        69.21014
309.38        70.76882
309.83        72.34341
310.29          73.936
310.74          75.544
311.19         77.0939
311.65        78.43328
312.10        79.51024
312.55           80.35
313.00        81.10238
313.46        82.01986
313.91        83.13528
314.36        84.40131
314.82        85.64291
315.27        86.58156
315.72        87.13409
316.18        87.41831
316.63        87.58195
317.08        87.90028
317.53        88.45317
317.99        89.15067
318.44        89.90907
318.89        90.56168
319.35        91.04705
319.80        91.41939
320.25        91.72252
320.70        92.02518
321.16        92.35117
321.61         92.7126
322.06        93.06705
322.51        93.36066
322.97        93.57236
323.42        93.72355
323.87        93.91946
324.32        94.34788
324.78        95.00246
325.23        95.89322
325.68         96.7428
326.13         97.0985
326.59        96.86434
327.04        96.20676
327.49        95.48069
327.94        95.27949
328.39        95.74879
328.85        96.68797
329.30        97.89039
329.75        98.74141
330.20        99.03301
330.66         98.9156
331.11        98.65462
331.56        98.60989
332.01        98.90832
332.46        99.41444
332.92        99.97145
333.37         100.475
333.82        100.8157
334.27        101.0914
334.72        101.3454
335.17        101.6212
335.63        101.9411
336.08        102.3318
336.53        102.8333
336.98        103.5625
337.43        104.5214
337.88        105.6448
338.34        106.7907
338.79         107.833
339.24        108.6452
339.69        109.2534
340.14        109.6292
340.59        109.7511
341.05        109.6893
341.50        109.4797
341.95        109.2911
342.40        109.3741
342.85        109.7974
343.30        110.4998
343.75        111.3916
344.20        112.3016
344.66        113.1432
345.11        113.9293
345.56        114.5993
346.01        115.0754
346.46        115.3653
346.91           115.5
347.36        115.5607
347.81        115.6976
348.26        115.9462
348.72        116.2516
349.17        116.6135
349.62        117.0591
350.07        117.5627
350.52        118.1406
350.97        118.5871
351.42         118.571
351.87        118.0657
352.32        117.1837
352.77        116.3076
353.22         116.006
353.67        116.3767
354.13        117.2463
354.58        118.2307
355.03         118.638
355.48        118.2889
355.93        117.3982
356.38        116.3595
356.83        115.7691
357.28        115.7507
357.73        116.0832
358.18        116.4578
358.63        116.3877
359.08        115.7444
359.53        114.7194
359.98        113.5228
360.43        112.4406
360.88        111.5649
361.33        110.8133
361.78        110.1303
362.23        109.4421
362.68        108.7331
363.13        108.0508
363.58        107.4255
364.03        106.8819
364.48         106.405
364.93        105.9488
365.38        105.4682
365.83        104.9102
366.28         104.264
366.73        103.5615
367.18        102.8041
367.63        101.9901
368.08        101.1411
368.53        100.2714
368.98        99.46258
369.43        98.83692
369.88        98.41198
370.33        98.15004
370.78        97.94422
371.23        97.61633
371.68        97.11281
372.13        96.47179
372.58        95.77309
373.03        95.15255
373.48        94.63824
373.93        94.17464
374.38        93.69653
374.83        93.10915
375.28        92.39622
375.72        91.59327
376.17        90.79903
376.62        90.04019
377.07        89.35463
377.52        88.75772
377.97        88.26363
378.42        87.90903
378.87        87.68345
379.32        87.52089
379.77        87.44524
380.22        87.49307
380.67        87.62904
381.11        87.86876
381.56        87.91551
382.01        87.38623
382.46        86.27856
382.91        84.79532
383.36         83.3893
383.81        82.68031
384.26        82.75105
384.71        83.38529
385.15        84.24249
385.60         84.7184
386.05        84.62311
386.50        84.13556
386.95        83.40009
387.40        82.65347
387.85         82.0076
388.29        81.34769
388.74        80.82146
389.19        80.43116
389.64        80.16738
390.09        80.03304
390.54        79.96186
390.98        79.80663
391.43        79.56895
391.88        79.26727
392.33        78.95858
392.78         78.6825
393.23        78.44437
393.67        78.32282
394.12        78.32256
394.57        77.98762
395.02        77.44817
395.47        77.42663
395.91        77.83578
396.36        77.84338
396.81        77.43482
397.26        77.08953
397.71        76.83332
398.15        76.56419
398.60        76.39868
399.05        76.05197
399.50         75.6536
399.95        75.95386
400.39         76.7102
400.84        76.51383
401.29        75.45945
401.74        74.92017
402.18        74.98878
402.63        74.83718
403.08        74.48067
403.53        74.31056
403.97        74.32293
404.42        74.40179
404.87        74.49883
405.32        74.50411
405.76        74.37501
406.21        74.28265
406.66        74.21771
407.11        73.94422
407.55        73.61895
408.00        73.71669
408.45        74.16114
408.90        74.40763
409.34        74.28776
409.79        73.80314
410.24        73.15735
410.68        72.81046
411.13        72.83407
411.58        72.97187
412.03        73.07623
412.47        73.05837
412.92        72.78181
413.37        72.38191
413.81          71.992
414.26        71.90786
414.71        72.14778
415.15        72.64738
415.60        73.21856
416.05        73.60932
416.49        73.73176
416.94        73.64751
417.39        73.46306
417.83        73.33387
418.28        73.31581
418.73        73.35326
419.17        73.42187
419.62        73.49213
420.07        73.53906
420.51        73.55772
420.96        73.56904
421.41         73.5297
421.85        73.42012
422.30        73.34933
422.74        73.24362
423.19        73.08072
423.64        72.84883
424.08        72.62409
424.53        72.50837
424.98        72.63055
425.42        73.00817
425.87        73.72692
426.31         74.5193
426.76        74.53653
427.21        73.89098
427.65        73.61015
428.10        73.74831
428.54        73.71976
428.99        73.60223
429.44        73.47991
429.88        73.48636
430.33         74.1963
430.77         75.2317
431.22         75.6433
431.66        75.35336
432.11         74.8528
432.56        74.40681
433.00        74.26448
433.45        74.59203
433.89        75.29226
434.34        75.68553
434.78        76.36963
435.23        75.53607
435.67         73.2454
436.12        74.05215
436.57        74.29308
437.01        75.10325
437.46        75.40537
437.90        75.16399
438.35        74.60902
438.79        74.56866
439.24        74.52475
439.68        74.66734
440.13        75.16713
440.57        75.87623
441.02        75.89124
441.46        75.33466
441.91        75.77385
442.35        76.81568
442.80        76.62875
443.24        75.47442
443.69        75.50112
444.13        76.60401
444.58        77.12201
445.02        76.97649
445.47        77.01414
445.91        77.29432
446.36        77.58775
446.80        77.87691
447.24        78.21192
447.69        78.52206
448.13        78.63506
448.58        78.58209
449.02         78.5102
449.47        78.47437
449.91         78.4076
450.36         78.3548
450.80        78.34975
451.25        78.41292
451.69        78.47435
452.13        78.53561
452.58        78.60312
453.02        78.65085
453.47        78.64348
453.91        78.56698
454.36        78.44434
454.80        78.27321
455.24        78.00938
455.69        77.67587
456.13        77.37972
456.58        77.22112
457.02        76.87328
457.46        76.58692
457.91        77.01736
458.35         77.8181
458.79        77.85807
459.24        77.16418
459.68        76.13014
460.13        75.10026
460.57        74.79771
461.01        75.48148
461.46        74.99123
461.90        75.89152
462.34        77.10024
462.79        76.99704
463.23        76.73651
463.68        76.96082
464.12        76.53924
464.56        75.89034
465.01        75.04788
465.45        74.22416
465.89        73.99776
466.34          74.258
466.78        74.55521
467.22        74.78696
467.67        74.46878
468.11         74.3474
468.55        74.40154
468.99        74.74545
469.44        74.73215
469.88        74.35999
470.32        74.02151
470.77        73.81152
471.21        73.70905
471.65        73.71986
472.10        73.84599
472.54        74.01745
472.98        74.06255
473.42        73.92845
473.87        73.89092
474.31        73.85572
474.75        73.26046
475.20        72.38842
475.64        72.33912
476.08        73.00919
476.52        73.18363
476.97        72.74103
477.41        72.60673
477.85        72.96515
478.29        72.50998
478.74        72.45401
479.18        73.68231
479.62        72.94819
480.06        73.07582
480.50        72.99754
480.95        72.80856
481.39        72.53619
481.83        72.42594
482.27        72.19672
482.72        72.65849
483.16        72.58802
483.60        72.51528
484.04        72.57071
484.48        72.82829
484.93        73.09454
485.37        72.30354
485.81        72.19324
486.25        71.49067
486.69        70.45602
487.14        73.99306
487.58        74.17603
488.02        73.11738
488.46        71.69964
488.90        71.61229
489.34        72.97108
489.79        73.65055
490.23        72.88895
490.67        72.22735
491.11        71.77295
491.55        71.65268
491.99        71.83115
492.43        71.77206
492.88        71.47756
493.32        71.42708
493.76        71.61687
494.20        71.76459
494.64        71.84093
495.08        71.88835
495.52        71.89835
495.96        71.95412
496.41        72.01722
496.85        71.88564
497.29        71.51871
497.73        71.50745
498.17        71.00269
498.61        70.99332
499.05        71.17997
499.49        71.48875
499.93        71.56956
500.37        71.67027
500.82        71.69987
501.26        71.60936
501.70        71.46327
502.14        71.47697
502.58        71.65332
503.02        71.77283
503.46        71.82306
503.90        71.96121
504.34        72.12569
504.78        72.11439
505.22        71.89116
505.66        71.57566
506.10        71.29839
506.54        71.02277
506.98        70.74143
507.42        71.18543
507.86        71.30334
508.30         70.9811
508.74        71.31184
509.18        71.20467
509.62        71.11443
510.06        71.07104
510.50        71.10805
510.94        71.17033
511.38        71.22798
511.82        71.27663
512.26        71.30541
512.70        71.32668
513.14        71.33562
513.58        71.32104
514.02        71.28595
514.46        71.23087
514.90         71.1861
515.34        71.20198
515.78        71.28306
516.22        71.41059
516.66          71.536
517.10        71.58034
517.54        71.52717
517.98        71.40453
518.42        71.25234
518.86        71.13689
519.30        71.07782
519.74        71.05103
520.18        71.05014
520.62         71.0619
521.06        71.08144
521.50         71.1278
521.93        71.17503
522.37        71.15639
522.81        71.07418
523.25        70.93365
523.69        70.81518
524.13        70.84827
524.57        71.04284
525.01        71.34856
525.45        71.63594
525.89        71.69554
526.32        71.47904
526.76        71.08241
527.20        70.62782
527.64        70.31242
528.08        70.19431
528.52        70.21344
528.96        70.32066
529.40         70.4376
529.83         70.5267
530.27        70.61919
530.71        70.69326
531.15        70.71825
531.59        70.69196
532.03        70.61168
532.46        70.49496
532.90        70.42763
533.34        70.41466
533.78        70.39786
534.22        70.36184
534.66        70.36665
535.09        70.35427
535.53        70.17313
535.97        69.86358
536.41        69.67104
536.85        69.62101
537.28        69.58481
537.72        69.57167
538.16        69.64875
538.60        69.80558
539.04        70.01883
539.47          70.212
539.91        70.31384
540.35        70.29283
540.79        70.17335
541.22         70.0148
541.66        69.93862
542.10        69.96354
542.54        70.05429
542.97        70.14543
543.41        70.16619
543.85        70.09033
544.29        69.96107
544.72        69.80636
545.16         69.7048
545.60        69.66373
546.04        69.67377
546.47        69.73683
546.91        69.83593
547.35        69.96094
547.79        70.13708
548.22        70.31599
548.66         70.3895
549.10        70.41352
549.53        70.36577
549.97        70.27856
550.41        70.07289
550.84        69.84858
551.28        69.77805
551.72        69.80692
552.15        69.90867
552.59        70.15347
553.03        69.53448
553.46        70.14093
553.90        70.10777
554.34        70.03335
554.77        70.04919
555.21        69.97736
555.65        70.01174
556.08        70.06116
556.52        70.09772
556.96        70.09094
557.39        70.14864
557.83        70.23465
558.27        70.04434
558.70        69.63541
559.14        69.46884
559.57        69.51712
560.01        69.41544
560.45        69.23161
560.88        69.32147
561.32        69.66468
561.75        70.01582
562.19        70.25451
562.63        70.10078
563.06         69.6726
563.50        69.50604
563.93        69.58733
564.37        69.74627
564.80        69.92432
565.24        69.82618
565.68        69.33213
566.11        69.99615
566.55        69.31564
566.98        69.08471
567.42        68.75026
567.85        68.90691
568.29        69.48666
568.72        69.85188
569.16        70.00419
569.60        70.23418
570.03        70.26513
570.47        70.34942
570.90        70.50403
571.34        69.86491
571.77        70.03227
572.21        70.81456
572.64        70.16238
573.08        70.84262
573.51        69.96227
573.95        69.84083
574.38        70.03967
574.82        70.31728
