SpectraSmart Spectrum 2.9.0.0
--------- Device Information -----------
Spectrum Name :  反射率_0
Saving Time :  2024/04/26 22:46:38
Spectro-Module Model Name : SE2030-DUVN
Spectro-Module Serial Number : OS361AC55029948
Wavelength Start : 200
Wavelength End : 1025
Wavelength Unit : Wavelength(nm)
Spectrum Unit : Reflectance(%)
-----------Spectrum Setting ------------
Integration Time : 20ms
Average : 10
Boxcar : 0
Background removal :  enabled
linearity correction :  enabled
SC :  disabled
Intensity correction :  disabled
DWT denoise :  enabled
savitzky-golay :  disabled
FFT :  disabled
Running average :  disabled
Kalman :  disabled
High pass :  disabled
---------------BEGIN--------------------
Wavelength(nm)             Reflectance(%)
200.29               0
200.75        45.68382
201.21        49.29644
201.67         53.1711
202.13        55.35132
202.58        55.64222
203.04        55.19733
203.50         54.1604
203.96         52.7413
204.42          51.412
204.88        49.69934
205.34        48.71497
205.80        50.55719
206.26        54.66714
206.72        59.39913
207.18        62.79191
207.64        63.12897
208.10        60.39536
208.55        55.24895
209.01        46.50659
209.47         37.7607
209.93         34.3264
210.39         34.9789
210.85        38.08691
211.31        43.68884
211.77         53.7301
212.23        75.18694
212.69        126.8081
213.14         208.567
213.60        196.7466
214.06        132.0372
214.52        89.44982
214.98        68.98576
215.44        58.27486
215.90        50.81345
216.36         46.2821
216.81        45.58095
217.27         49.4771
217.73        59.88548
218.19        76.61208
218.65        88.23937
219.11         87.2682
219.57        79.38548
220.02        72.80726
220.48        73.05769
220.94        79.63036
221.40        92.21347
221.86        109.8737
222.32        119.7862
222.77        111.5841
223.23        95.22253
223.69        78.79623
224.15         65.8435
224.61        56.12957
225.06        48.32556
225.52        43.05496
225.98        40.77378
226.44        40.97112
226.90        43.09412
227.36        45.88284
227.81        47.18891
228.27        46.62976
228.73        44.78315
229.19        42.90173
229.65        42.49231
230.10        43.57624
230.56        45.55972
231.02         47.3145
231.48        47.12358
231.93        44.83161
232.39        41.60575
232.85        38.51375
233.31        36.88845
233.77        36.88178
234.22        37.99512
234.68        39.74868
235.14         41.5559
235.60        43.17103
236.05        44.86568
236.51        46.44822
236.97        47.43813
237.43        47.71578
237.88        47.34373
238.34        46.91337
238.80        47.81515
239.26        50.73029
239.71        56.22126
240.17        64.11926
240.63        73.01068
241.08        81.63516
241.54        89.18188
242.00        96.77964
242.46        108.3553
242.91        127.9339
243.37        157.8761
243.83        199.8373
244.28        238.9446
244.74        248.4596
245.20        225.2249
245.66        190.1429
246.11        163.4869
246.57         147.246
247.03        136.2588
247.48        126.9732
247.94        116.2707
248.40        106.2205
248.85        98.99287
249.31        94.74065
249.77        91.90693
250.22        89.32393
250.68          85.866
251.14        81.54263
251.59        78.10381
252.05         77.2037
252.51        79.06107
252.96        80.27783
253.42        77.88233
253.88        72.62331
254.33        66.03374
254.79        62.17218
255.25        64.32615
255.70        71.72036
256.16        82.42105
256.62        91.83778
257.07        93.07807
257.53        87.73361
257.99        80.17431
258.44        73.55085
258.90        70.60088
259.35        70.14186
259.81        71.14126
260.27        72.26588
260.72        72.06956
261.18        70.71941
261.63        68.55676
262.09        66.56789
262.55        65.17151
263.00        64.24025
263.46        63.70662
263.91         62.9245
264.37        61.47384
264.83        59.37339
265.28         56.8908
265.74        54.73544
266.19        53.44577
266.65        53.10682
267.11        53.34617
267.56        53.71671
268.02        53.52109
268.47        52.58065
268.93        51.18967
269.38         49.5399
269.84        47.98906
270.30        46.65149
270.75        45.38886
271.21        44.33241
271.66        43.62484
272.12        43.24502
272.57        43.13043
273.03        42.97381
273.48        42.25503
273.94        40.96366
274.39        39.26828
274.85        37.59933
275.31        36.40951
275.76        35.76002
276.22        35.51983
276.67        35.44727
277.13        35.29466
277.58        34.93167
278.04        34.46557
278.49        33.91528
278.95        33.42654
279.40        32.97266
279.86        32.56897
280.31        32.10071
280.77        31.52819
281.22        30.82544
281.68        30.10605
282.13        29.44583
282.59        29.02779
283.04        28.83708
283.50        28.82999
283.95        28.90219
284.41        28.90287
284.86        28.78314
285.32        28.61403
285.77        28.42507
286.22        28.32192
286.68        28.32711
287.13         28.3687
287.59        28.43921
288.04        28.48474
288.50        28.51112
288.95        28.50698
289.41        28.48932
289.86        28.41022
290.32         28.3127
290.77        28.20777
291.22        28.15607
291.68        28.22887
292.13        28.44587
292.59        28.82457
293.04        29.36481
293.50         30.0794
293.95        30.94935
294.40        31.96425
294.86         33.1068
295.31        34.33875
295.77        35.64569
296.22        37.01071
296.68        38.40989
297.13        39.79743
297.58        41.17975
298.04        42.57137
298.49        44.01769
298.95        45.61149
299.40        47.35027
299.85        49.20484
300.31        51.10978
300.76        52.94004
301.21        54.67696
301.67        56.37399
302.12        58.04607
302.58        59.80793
303.03        61.63078
303.48        63.49474
303.94        65.39034
304.39        67.24073
304.84        69.05312
305.30        70.85925
305.75        72.60736
306.20        74.30611
306.66        75.97695
307.11        77.59139
307.57        79.18165
308.02        80.68887
308.47        82.13824
308.93        83.54516
309.38         84.9444
309.83        86.50493
310.29        88.24448
310.74         90.1002
311.19        91.89092
311.65        93.29276
312.10        94.21192
312.55        94.73739
313.00        95.10909
313.46        95.71129
313.91        96.61361
314.36        97.73695
314.82         98.8823
315.27        99.73574
315.72        100.2007
316.18        100.4186
316.63        100.5324
317.08        100.8101
317.53        101.3242
317.99        101.9662
318.44        102.6605
318.89        103.2584
319.35        103.6971
319.80        104.0301
320.25        104.2626
320.70        104.4006
321.16        104.4671
321.61        104.5086
322.06         104.559
322.51        104.6899
322.97        104.9083
323.42        105.1938
323.87        105.5874
324.32        106.1735
324.78        106.9004
325.23        107.8102
325.68        108.6159
326.13        108.8589
326.59        108.4575
327.04        107.5832
327.49        106.6431
327.94         106.316
328.39        106.7677
328.85        107.7809
329.30        109.1136
329.75        110.0518
330.20         110.353
330.66        110.1832
331.11        109.8527
331.56        109.7901
332.01        110.1362
332.46        110.7244
332.92        111.3394
333.37        111.8006
333.82        111.9721
334.27        111.9849
334.72        111.9387
335.17        111.9651
335.63         112.119
336.08        112.4193
336.53        112.8767
336.98        113.5603
337.43        114.4529
337.88         115.494
338.34         116.568
338.79         117.603
339.24        118.4716
339.69        119.1785
340.14        119.6159
340.59        119.6414
341.05        119.3112
341.50        118.7052
341.95        118.1046
342.40        117.9316
342.85        118.2872
343.30        119.0516
343.75          120.04
344.20        120.9238
344.66        121.5739
345.11        122.0625
345.56         122.381
346.01        122.5318
346.46        122.5571
346.91        122.4619
347.36        122.3426
347.81        122.3745
348.26        122.5865
348.72        122.9182
349.17        123.3139
349.62        123.7107
350.07        124.0609
350.52        124.3979
350.97        124.5703
351.42        124.3433
351.87        123.7137
352.32        122.7637
352.77        121.8245
353.22        121.3814
353.67         121.516
354.13        122.0883
354.58        122.7564
355.03        122.9012
355.48        122.3662
355.93        121.3335
356.38        120.1866
356.83        119.5028
357.28        119.3915
357.73        119.6472
358.18         119.912
358.63        119.6226
359.08        118.6492
359.53         117.204
359.98        115.6097
360.43        114.3212
360.88        113.4511
361.33        112.8624
361.78        112.3547
362.23        111.6207
362.68        110.5971
363.13        109.4108
363.58        108.2394
364.03        107.3329
364.48        106.7377
364.93        106.3481
365.38        106.0145
365.83        105.5133
366.28         104.785
366.73        103.9084
367.18        102.9764
367.63        102.1281
368.08        101.4032
368.53        100.7512
368.98        100.1353
369.43        99.49899
369.88        98.82227
370.33        98.13425
370.78        97.43626
371.23        96.73135
371.68        96.02824
372.13        95.31499
372.58        94.62739
373.03        94.02258
373.48        93.49764
373.93        93.03133
374.38         92.5404
374.83        91.89617
375.28        91.08286
375.72        90.13248
376.17        89.19875
376.62        88.40409
377.07        87.79206
377.52        87.33975
377.97         86.9828
378.42        86.62727
378.87        86.24091
379.32        85.82048
379.77        85.44955
380.22         85.2473
380.67        85.20656
381.11        85.31055
381.56        85.29493
382.01        84.82792
382.46        83.89487
382.91        82.67307
383.36        81.50656
383.81         80.8604
384.26        80.79528
384.71        81.13764
385.15        81.65259
385.60        81.92284
386.05        81.81209
386.50        81.44424
386.95        80.87984
387.40        80.22414
387.85        79.55498
388.29        78.80383
388.74        78.16302
389.19        77.70208
389.64        77.41992
390.09        77.28365
390.54        77.20147
390.98        76.99432
391.43        76.66809
391.88        76.27214
392.33        75.86651
392.78        75.53725
393.23        75.30344
393.67        75.09154
394.12         74.9627
394.57        74.86535
395.02        74.77981
395.47        74.69366
395.91        74.58796
396.36        74.40337
396.81        74.16137
397.26        73.88509
397.71        73.59036
398.15        73.30723
398.60        73.13728
399.05        72.89716
399.50        72.63461
399.95        72.72881
400.39        73.06683
400.84        72.83155
401.29        72.11461
401.74        71.90562
402.18        72.15766
402.63        71.88194
403.08        71.18672
403.53        70.90103
403.97        71.05093
404.42        71.23384
404.87        71.34081
405.32        71.29396
405.76         71.0383
406.21        70.78754
406.66        70.57276
407.11        70.11862
407.55         69.6468
408.00        69.84325
408.45        70.57317
408.90        70.98145
409.34        70.83792
409.79        70.25713
410.24        69.48716
410.68        69.04279
411.13        69.01093
411.58         69.0919
412.03        69.16218
412.47        69.15524
412.92         69.0015
413.37        68.75714
413.81        68.49718
414.26         68.3956
414.71        68.45681
415.15        68.65061
415.60        68.88035
416.05          69.062
416.49        69.16069
416.94        69.18864
417.39        69.18053
417.83          69.175
418.28        69.19112
418.73        69.21457
419.17        69.23365
419.62        69.23579
420.07        69.20905
420.51        69.13953
420.96        69.07887
421.41        69.01758
421.85        68.93378
422.30        68.98261
422.74        69.03883
423.19        68.83446
423.64        68.41951
424.08        68.26373
424.53        68.40083
424.98        68.50479
425.42        68.56419
425.87        68.91002
426.31        69.39284
426.76        69.25365
427.21        68.63167
427.65        68.50083
428.10        68.81936
428.54        68.86924
428.99        68.68188
429.44        68.40168
429.88        68.22041
430.33        68.71136
430.77        69.56111
431.22        70.01407
431.66        69.91427
432.11        69.31903
432.56        68.55576
433.00        68.39662
433.45         68.9846
433.89        69.79559
434.34        70.19552
434.78        70.57125
435.23        70.12861
435.67        67.98174
436.12        68.48936
436.57        68.69739
437.01        69.61178
437.46        69.92317
437.90        69.55719
438.35         69.2058
438.79        69.06285
439.24        69.03397
439.68         69.1167
440.13        69.57879
440.57        70.25316
441.02        70.07835
441.46        69.27029
441.91        69.69878
442.35        70.91077
442.80        70.76175
443.24          69.472
443.69        69.26786
444.13        70.10414
444.58        70.40098
445.02        70.11895
445.47         70.1095
445.91        70.41302
446.36        70.70338
446.80        70.94083
447.24        71.26987
447.69        71.66185
448.13        71.59305
448.58        71.80641
449.02         71.7016
449.47        71.54222
449.91        71.35281
450.36        71.19051
450.80        71.02551
451.25        70.90594
451.69        70.86623
452.13        70.91849
452.58        71.03582
453.02        71.17825
453.47        71.28628
453.91        71.33481
454.36        71.35082
454.80        71.29585
455.24        71.11667
455.69        70.83899
456.13        70.44347
456.58        70.09763
457.02        69.92557
457.46        69.98604
457.91          70.283
458.35        70.58029
458.79         70.5078
459.24        70.07472
459.68        69.36655
460.13        68.67957
460.57        68.45444
461.01        68.60046
461.46        69.02942
461.90          69.524
462.34        70.21107
462.79        70.30452
463.23        70.44191
463.68        70.35555
464.12           70.11
464.56        69.68493
465.01        68.90369
465.45        68.00415
465.89        67.77365
466.34        68.11289
466.78        68.50372
467.22        68.81176
467.67        68.45975
468.11        68.18844
468.55        68.30822
468.99        68.90264
469.44        69.04438
469.88        68.71185
470.32        68.46353
470.77        68.37155
471.21        68.29781
471.65        68.24468
472.10        68.24948
472.54        68.29029
472.98        68.28236
473.42        68.19512
473.87         68.2396
474.31         68.2873
474.75        67.80725
475.20        67.00497
475.64         66.8149
476.08        67.23717
476.52        67.27643
476.97        66.85158
477.41        67.10632
477.85        67.49247
478.29        66.96086
478.74        67.25792
479.18        67.51684
479.62        67.54385
480.06        67.59245
480.50        67.44075
480.95        67.34949
481.39        67.33143
481.83        67.09954
482.27        66.89411
482.72        67.31837
483.16        66.95491
483.60        66.95504
484.04         67.1934
484.48        67.44105
484.93        67.37955
485.37        67.58183
485.81        66.41908
486.25        65.83929
486.69        65.32932
487.14         67.4536
487.58        67.41751
488.02        67.61194
488.46        66.23985
488.90        66.29707
489.34        67.81912
489.79        68.32469
490.23        67.70175
490.67        66.94813
491.11        66.36868
491.55        66.30788
491.99        66.68448
492.43        66.71044
492.88        66.35258
493.32        66.21676
493.76        66.34226
494.20        66.44588
494.64         66.5078
495.08        66.63401
495.52        66.76674
495.96        66.74763
496.41        66.59754
496.85        66.51046
497.29        66.41869
497.73        66.49817
498.17         65.9497
498.61        65.96085
499.05        66.24491
499.49        66.48477
499.93        66.38368
500.37        66.47234
500.82        66.63161
501.26        66.44457
501.70        66.03088
502.14        66.02715
502.58        66.40289
503.02        66.57381
503.46        66.50948
503.90        66.55828
504.34         66.6844
504.78        66.65417
505.22        66.45054
505.66        66.15874
506.10        65.89922
506.54        65.69073
506.98        65.53539
507.42        65.72144
507.86        66.26432
508.30        65.50775
508.74        66.08378
509.18        65.88334
509.62        65.74748
510.06        65.68709
510.50        65.73805
510.94         65.8438
511.38        65.93781
511.82          65.991
512.26        65.98528
512.70        65.94221
513.14        65.89476
513.58        65.89242
514.02         65.9473
514.46        66.03644
514.90        66.14098
515.34        66.23299
515.78        66.29819
516.22        66.34375
516.66        66.35849
517.10        66.32499
517.54        66.24541
517.98         66.1264
518.42        65.99709
518.86        65.90546
519.30        65.86406
519.74        65.86272
520.18        65.88046
520.62        65.87884
521.06        65.85113
521.50        65.81653
521.93         65.7914
522.37        65.78156
522.81        65.79982
523.25        65.83154
523.69        65.88553
524.13        65.98045
524.57        66.10722
525.01        66.24918
525.45        66.36186
525.89        66.37487
526.32        66.27016
526.76        66.09289
527.20        65.87917
527.64        65.69954
528.08        65.58254
528.52        65.49467
528.96        65.44823
529.40        65.50703
529.83        65.63811
530.27        65.73229
530.71        65.77117
531.15        65.82753
531.59        65.89323
532.03        65.90381
532.46        65.85448
532.90        65.81726
533.34        65.79237
533.78        65.73185
534.22        65.63398
534.66        65.57743
535.09        65.51696
535.53        65.30324
535.97        64.99017
536.41        64.82972
536.85        64.84368
537.28        64.90645
537.72         64.9808
538.16        65.05404
538.60        65.10523
539.04         65.1385
539.47        65.14322
539.91        65.14728
540.35        65.14182
540.79        65.11917
541.22        65.08781
541.66        65.08527
542.10        65.10773
542.54        65.14832
542.97        65.17142
543.41        65.14968
543.85        65.07206
544.29        64.96405
544.72         64.8447
545.16        64.78127
545.60        64.77603
546.04        64.81755
546.47        64.90543
546.91        65.03004
547.35        65.17239
547.79        65.33007
548.22         65.4655
548.66        65.50557
549.10        65.51173
549.53        65.47084
549.97        65.40665
550.41        65.21072
550.84        64.96079
551.28        64.87874
551.72        64.92959
552.15        64.97089
552.59        65.04614
553.03        64.75586
553.46        65.10827
553.90        65.14731
554.34        65.15885
554.77        65.16436
555.21        65.18863
555.65        65.24082
556.08        65.29957
556.52        65.31203
556.96        65.26297
557.39        65.28655
557.83        65.33159
558.27        65.08918
558.70        64.62441
559.14        64.33398
559.57        64.25201
560.01        64.25492
560.45        64.33745
560.88        64.50359
561.32         64.7381
561.75        65.04707
562.19        65.34782
562.63        65.29417
563.06        64.96891
563.50        64.88423
563.93        64.98652
564.37        64.99892
564.80        64.92669
565.24        64.74271
565.68        64.35873
566.11        65.01273
566.55        64.37185
566.98        64.31139
567.42        64.23813
567.85        64.30507
568.29         64.5094
568.72        64.76976
569.16        65.09846
569.60         65.1508
570.03        65.13408
570.47        65.13039
570.90        65.28825
571.34          64.581
571.77        65.03905
572.21        65.22913
572.64        65.06832
573.08        65.37437
573.51          64.626
573.95        64.54987
574.38        64.83578
574.82        65.13736
