SpectraSmart Spectrum 2.9.0.0
--------- Device Information -----------
Spectrum Name :  反射率_0
Saving Time :  2024/04/26 22:44:59
Spectro-Module Model Name : SE2030-DUVN
Spectro-Module Serial Number : OS361AC55029948
Wavelength Start : 200
Wavelength End : 1025
Wavelength Unit : Wavelength(nm)
Spectrum Unit : Reflectance(%)
-----------Spectrum Setting ------------
Integration Time : 20ms
Average : 10
Boxcar : 0
Background removal :  enabled
linearity correction :  enabled
SC :  disabled
Intensity correction :  disabled
DWT denoise :  enabled
savitzky-golay :  disabled
FFT :  disabled
Running average :  disabled
Kalman :  disabled
High pass :  disabled
---------------BEGIN--------------------
Wavelength(nm)             Reflectance(%)
200.29               0
200.75        45.25055
201.21        43.62282
201.67        42.24347
202.13        41.26295
202.58         40.5663
203.04        40.58121
203.50        41.57901
203.96        43.66204
204.42        46.75234
204.88         50.4698
205.34        54.22041
205.80        57.30703
206.26        59.03559
206.72        58.99986
207.18        57.61691
207.64        55.14202
208.10        51.40898
208.55        46.20437
209.01        38.29101
209.47         30.4242
209.93        26.92966
210.39        27.18262
210.85         29.0767
211.31        31.39039
211.77        34.71035
212.23        41.88265
212.69        59.53121
213.14         90.1087
213.60        89.28019
214.06        67.32487
214.52        53.25377
214.98        49.14211
215.44        50.23489
215.90        53.66907
216.36        57.61128
216.81        59.19123
217.27        57.75527
217.73        54.34459
218.19        49.31997
218.65        46.15092
219.11        47.30201
219.57        49.81859
220.02        52.97271
220.48        58.13501
220.94        66.08574
221.40        78.88362
221.86        95.35915
222.32        102.4276
222.77        91.57339
223.23        72.83021
223.69        57.17102
224.15        50.29576
224.61        49.90772
225.06        52.45079
225.52        55.62049
225.98        56.91856
226.44        56.20943
226.90        54.58299
227.36        52.63136
227.81        51.27705
228.27        50.93044
228.73        50.92623
229.19        51.31071
229.65        52.25219
230.10        53.63641
230.56        55.55953
231.02        57.21434
231.48         57.2872
231.93        55.69692
232.39        53.27095
232.85        51.17173
233.31        50.99444
233.77        52.83764
234.22        56.14315
234.68        59.91212
235.14        62.64969
235.60        63.90178
236.05        64.13614
236.51        63.75095
236.97         63.6829
237.43        64.36369
237.88        65.53447
238.34        67.05298
238.80        69.09074
239.26        71.83292
239.71        76.01727
240.17         81.3924
240.63        87.19334
241.08          92.715
241.54        96.89862
242.00        100.7159
242.46        107.1639
242.91        118.9849
243.37        137.3622
243.83        162.2616
244.28         181.041
244.74        175.7858
245.20        148.5379
245.66        117.0519
246.11        94.87299
246.57        82.23701
247.03        75.19814
247.48        71.56373
247.94        68.82372
248.40        66.72839
248.85        65.68156
249.31        65.83865
249.77        66.89031
250.22        68.65729
250.68         71.0023
251.14        73.79433
251.59        75.95401
252.05        76.97133
252.51        77.91614
252.96         78.0017
253.42        77.10107
253.88        75.70262
254.33        73.69065
254.79        74.11386
255.25        79.51756
255.70        89.23848
256.16        102.0848
256.62        113.0181
257.07        114.3015
257.53        108.0979
257.99        99.36539
258.44        92.11089
258.90        89.93439
259.35        91.25334
259.81        94.64019
260.27        97.99764
260.72         98.8399
261.18        97.43286
261.63        94.55749
262.09        91.82608
262.55        90.11375
263.00        89.25563
263.46        88.98376
263.91          88.441
264.37         87.1188
264.83        84.96032
265.28        82.32005
265.74        79.89212
266.19        78.02389
266.65          76.869
267.11        76.08788
267.56        75.49596
268.02        74.85606
268.47        74.05217
268.93        73.21873
269.38        72.21884
269.84         70.9237
270.30        69.32799
270.75        67.46397
271.21        65.64708
271.66         64.2751
272.12        63.41816
272.57         62.8903
273.03        62.41621
273.48        61.52259
273.94        60.18558
274.39        58.54872
274.85        56.88326
275.31        55.34788
275.76        53.98546
276.22        52.80566
276.67        51.77689
277.13        51.01714
277.58        50.42428
278.04        49.97783
278.49        49.51191
278.95        48.94336
279.40        48.17084
279.86        47.33683
280.31        46.35832
280.77        45.28124
281.22        44.10694
281.68        42.95993
282.13        41.95437
282.59        41.37338
283.04        41.18727
283.50        41.33469
283.95         41.6296
284.41        41.79438
284.86        41.73553
285.32        41.56313
285.77        41.33977
286.22        41.25544
286.68        41.34335
287.13        41.47416
287.59        41.61914
288.04        41.67745
288.50        41.65157
288.95         41.5458
289.41          41.377
289.86        41.06162
290.32        40.67539
290.77        40.24907
291.22        39.92226
291.68        39.87318
292.13        40.13616
292.59        40.70324
293.04        41.51832
293.50         42.5075
293.95        43.61752
294.40        44.85886
294.86        46.22745
295.31        47.70384
295.77        49.28207
296.22        50.92179
296.68        52.60028
297.13        54.27261
297.58        55.94324
298.04        57.62314
298.49        59.34127
298.95         61.1721
299.40        63.10049
299.85        65.10016
300.31        67.11555
300.76        69.02557
301.21        70.82285
301.67        72.57169
302.12        74.27908
302.58        76.06828
303.03        77.90826
303.48        79.79498
303.94        81.74815
304.39        83.70674
304.84        85.68987
305.30        87.72587
305.75        89.72346
306.20          91.653
306.66        93.52151
307.11        95.28063
307.57        96.99467
308.02        98.63357
308.47        100.2223
308.93        101.7598
309.38        103.2078
309.83        104.6489
310.29        106.0963
310.74        107.5292
311.19        108.8569
311.65        109.8992
312.10        110.6082
312.55        111.0416
313.00         111.392
313.46        111.9617
313.91        112.7879
314.36         113.817
314.82        114.8609
315.27        115.6308
315.72        116.0298
316.18        116.1782
316.63        116.2055
317.08        116.3729
317.53        116.7533
317.99        117.2551
318.44        117.7972
318.89        118.2148
319.35        118.4565
319.80        118.5877
320.25        118.6741
320.70        118.8163
321.16        119.0446
321.61        119.3706
322.06        119.7337
322.51        120.0522
322.97        120.2817
323.42        120.4355
323.87        120.6197
324.32        121.0322
324.78        121.6573
325.23        122.5287
325.68        123.3084
326.13        123.4568
326.59        122.8796
327.04         121.781
327.49        120.6579
327.94        120.3268
328.39        120.9686
328.85        122.3104
329.30        123.9827
329.75        125.0116
330.20        125.0861
330.66        124.4555
331.11        123.5889
331.56        123.1588
332.01        123.3863
332.46        124.0393
332.92        124.8424
333.37        125.5232
333.82        125.8859
334.27          126.09
334.72        126.2078
335.17        126.3212
335.63         126.475
336.08        126.6917
336.53        127.0181
336.98        127.6061
337.43        128.4624
337.88        129.5065
338.34        130.6064
338.79        131.6674
339.24        132.5487
339.69        133.2819
340.14        133.7358
340.59        133.7276
341.05        133.3134
341.50        132.5686
341.95        131.8554
342.40        131.7255
342.85        132.2903
343.30        133.3882
343.75        134.6918
344.20        135.6365
344.66        136.0507
345.11         136.094
345.56        135.9238
346.01        135.8061
346.46        135.8493
346.91        135.9682
347.36        136.1529
347.81        136.4138
348.26        136.7178
348.72        137.0492
349.17        137.3652
349.62         137.625
350.07        137.7997
350.52        137.9173
350.97        137.8411
351.42         137.372
351.87        136.5267
352.32        135.3922
352.77        134.3226
353.22        133.8242
353.67        133.9718
354.13        134.6142
354.58        135.3556
355.03        135.4839
355.48        134.8197
355.93        133.5636
356.38        132.1602
356.83        131.2849
357.28        131.0612
357.73        131.2455
358.18        131.4252
358.63        130.9465
359.08         129.671
359.53        127.8699
359.98        125.9062
360.43        124.2855
360.88        123.1429
361.33        122.3196
361.78        121.6582
362.23        120.9202
362.68        120.0345
363.13        119.0981
363.58        118.1655
364.03        117.2979
364.48        116.5002
364.93        115.7108
365.38        114.9077
365.83        114.0867
366.28         113.247
366.73        112.4078
367.18        111.5466
367.63        110.6161
368.08        109.6171
368.53         108.571
368.98        107.5471
369.43          106.65
369.88        105.9019
370.33        105.2758
370.78        104.6939
371.23        104.0335
371.68        103.2586
372.13        102.3886
372.58        101.5053
373.03         100.738
373.48        100.1025
373.93        99.55052
374.38        98.95676
374.83        98.13247
375.28        97.05617
375.72        95.79245
376.17        94.55581
376.62        93.54347
377.07        92.81911
377.52        92.34346
377.97        92.00853
378.42        91.65071
378.87        91.21786
379.32        90.71883
379.77        90.28509
380.22        90.10786
380.67        90.18787
381.11        90.48563
381.56        90.65083
382.01        90.21371
382.46        89.13265
382.91        87.63584
383.36        86.18326
383.81         85.4003
384.26        85.37638
384.71        85.89201
385.15         86.6132
385.60        86.95525
386.05        86.73875
386.50        86.13802
386.95        85.31267
387.40        84.52032
387.85        83.86369
388.29        83.21217
388.74        82.67229
389.19        82.17769
389.64        81.71552
390.09        81.32451
390.54        80.97572
390.98         80.5902
391.43        80.19566
391.88        79.78363
392.33        79.43362
392.78        79.19232
393.23        79.04301
393.67        79.11773
394.12        79.31878
394.57         78.8862
395.02        78.00568
395.47        77.78271
395.91        78.16936
396.36        78.10363
396.81        77.57874
397.26        77.22927
397.71         77.0663
398.15        76.83327
398.60         76.6228
399.05        76.32268
399.50        76.00269
399.95        76.04048
400.39        76.32658
400.84        76.11981
401.29        75.45785
401.74        75.06248
402.18        74.94894
402.63        74.54549
403.08        73.95248
403.53        73.63834
403.97        73.62217
404.42        73.71149
404.87        73.81123
405.32        73.77885
405.76        73.55875
406.21        73.33916
406.66        73.13156
407.11        72.73779
407.55        72.33585
408.00        72.35992
408.45        72.73784
408.90        73.04926
409.34        73.05384
409.79        72.45081
410.24        71.50815
410.68        71.03622
411.13        71.11964
411.58        71.30869
412.03        71.43036
412.47        71.39902
412.92        71.13503
413.37        70.71142
413.81        70.26906
414.26        70.07774
414.71        70.15874
415.15        70.45478
415.60        70.82942
416.05        71.12275
416.49         71.2714
416.94        71.31265
417.39        71.28644
417.83        71.24209
418.28         71.2057
418.73        71.14714
419.17        71.08805
419.62        71.07584
420.07        71.10748
420.51        71.15358
420.96        71.19337
421.41        71.12805
421.85        70.92482
422.30        70.70497
422.74        70.44585
423.19        70.19116
423.64        69.94684
424.08        69.77729
424.53        69.70857
424.98        69.78216
425.42        69.99911
425.87        70.35342
426.31        70.72493
426.76        70.77317
427.21        70.53056
427.65         70.3262
428.10        70.17825
428.54        70.04792
428.99        70.00623
429.44        69.70831
429.88        69.39064
430.33        70.13515
430.77        71.46529
431.22        71.94556
431.66        71.48251
432.11        70.72717
432.56        69.96661
433.00          69.815
433.45        70.53179
433.89        71.06115
434.34        70.54533
434.78        72.74526
435.23        71.24379
435.67        68.54385
436.12        69.74666
436.57          69.769
437.01        70.30811
437.46        70.56217
437.90        70.62136
438.35        69.73122
438.79        70.14291
439.24        70.06693
439.68         70.1276
440.13        70.39859
440.57        70.81917
441.02        70.87303
441.46        70.59292
441.91        70.89108
442.35        71.49826
442.80         71.3725
443.24        70.66115
443.69        70.67921
444.13        71.35383
444.58        71.65423
445.02        71.53143
445.47        71.55629
445.91        71.77305
446.36        71.97794
446.80        72.14302
447.24        72.50181
447.69        72.67949
448.13         72.7051
448.58        72.51411
449.02        72.26601
449.47        72.05895
449.91        71.87826
450.36        71.77573
450.80        71.85423
451.25        72.05611
451.69        71.99336
452.13        71.75201
452.58        71.83031
453.02         72.1758
453.47         72.3276
453.91        72.25085
454.36        72.16405
454.80         72.0882
455.24        71.98371
455.69        71.81964
456.13        71.55053
456.58        71.25954
457.02        70.74823
457.46        70.25401
457.91        70.51783
458.35        71.23132
458.79        71.27671
459.24        70.66939
459.68         69.8677
460.13        69.13348
460.57        68.94967
461.01        69.50851
461.46        69.22604
461.90        69.72424
462.34        71.05305
462.79         70.5088
463.23        70.68179
463.68        70.58385
464.12        70.26431
464.56        69.71564
465.01        69.00428
465.45        68.32594
465.89        68.11426
466.34        68.25027
466.78        68.53921
467.22         68.8371
467.67        68.01263
468.11        68.27344
468.55        68.25049
468.99        68.51611
469.44        68.50671
469.88        68.22687
470.32        67.98212
470.77        67.81312
471.21         67.6866
471.65        67.60419
472.10        67.58135
472.54        67.59614
472.98        67.57719
473.42        67.49644
473.87        67.52352
474.31        67.55039
474.75        67.16247
475.20        66.53069
475.64        66.37106
476.08        66.68025
476.52        66.69222
476.97        66.34174
477.41        66.34109
477.85        66.79509
478.29        66.13149
478.74        66.43678
479.18        66.83595
479.62        66.72443
480.06        66.78184
480.50        66.65306
480.95        66.47198
481.39        66.24632
481.83        66.26672
482.27        65.83459
482.72         66.4559
483.16        66.13495
483.60        66.24935
484.04        66.21741
484.48        66.48244
484.93        66.80892
485.37        66.14689
485.81          65.678
486.25        65.54375
486.69        65.28561
487.14        67.47932
487.58        66.86109
488.02        66.75226
488.46        65.52161
488.90         65.4175
489.34        66.62047
489.79        67.19711
490.23        66.54272
490.67         66.0049
491.11        65.62858
491.55        65.52692
491.99        65.64854
492.43        65.54172
492.88        65.20888
493.32         65.0531
493.76        65.10696
494.20        65.16825
494.64        65.21674
495.08        65.34151
495.52        65.48587
495.96        65.47286
496.41        65.31038
496.85        65.24053
497.29        65.18704
497.73        65.17212
498.17        64.46606
498.61        64.56678
499.05          65.118
499.49        65.34888
499.93        65.00362
500.37        64.95536
500.82         65.1377
501.26        65.12828
501.70        64.94754
502.14        64.89101
502.58        64.97498
503.02        65.04014
503.46        65.07948
503.90        65.17762
504.34        65.27876
504.78        65.24559
505.22        65.05034
505.66        64.77493
506.10        64.52041
506.54        64.31103
506.98        64.15148
507.42        64.55473
507.86         64.4918
508.30        64.60807
508.74        64.58481
509.18        64.48373
509.62        64.35109
510.06        64.28051
510.50        64.30392
510.94        64.37799
511.38         64.4706
511.82        64.53119
512.26        64.54622
512.70        64.54101
513.14        64.53085
513.58        64.53698
514.02         64.5683
514.46        64.60971
514.90        64.67002
515.34        64.76852
515.78        64.89506
516.22        65.03214
516.66        65.13728
517.10        65.14256
517.54        65.03799
517.98        64.85705
518.42        64.63146
518.86        64.41265
519.30         64.2298
519.74        64.07553
520.18        63.98449
520.62        64.00493
521.06        64.13622
521.50        64.36438
521.93        64.61824
522.37        64.75748
522.81        64.75478
523.25        64.63698
523.69        64.47623
524.13        64.39522
524.57        64.41644
525.01        64.49135
525.45        64.56203
525.89        64.53464
526.32        64.38687
526.76        64.18964
527.20        63.96611
527.64        63.76377
528.08        63.61071
528.52        63.45549
528.96         63.3606
529.40        63.50441
529.83        63.84235
530.27        64.16264
530.71        64.36918
531.15        64.47523
531.59        64.45341
532.03        64.23566
532.46         63.9057
532.90        63.71852
533.34        63.71638
533.78        63.70407
534.22         63.7929
534.66        63.81653
535.09        63.75939
535.53        63.52282
535.97        63.18312
536.41        63.00298
536.85        63.01343
537.28         63.0844
537.72        63.18135
538.16        63.29551
538.60        63.40278
539.04        63.50751
539.47        63.57829
539.91        63.60832
540.35        63.58362
540.79        63.50561
541.22        63.40935
541.66        63.37474
542.10        63.40965
542.54        63.49702
542.97        63.57575
543.41        63.57894
543.85        63.48448
544.29        63.32401
544.72        63.14745
545.16        63.06913
545.60        63.10111
546.04        63.21851
546.47        63.36972
546.91        63.48255
547.35        63.53188
547.79        63.48698
548.22         63.3898
548.66        63.42131
549.10        63.59687
549.53        63.56441
549.97        63.35518
550.41        63.14935
550.84        63.02118
551.28        63.01088
551.72        63.07958
552.15         63.1488
552.59        63.25533
553.03        63.04731
553.46        63.38479
553.90        63.39152
554.34        63.31895
554.77        63.19363
555.21        63.08728
555.65        63.11586
556.08        63.25947
556.52        63.37146
556.96        63.40596
557.39         63.5135
557.83        63.63922
558.27        63.42524
558.70        62.93784
559.14        62.70965
559.57        62.73306
560.01        62.57449
560.45        62.33581
560.88         62.5206
561.32        63.04062
561.75        63.43176
562.19          63.581
562.63        63.31085
563.06        62.78508
563.50        62.70396
563.93        62.98531
564.37        63.01182
564.80        62.79914
565.24        62.66234
565.68        62.49624
566.11        63.10075
566.55        62.51841
566.98        62.38209
567.42        62.23284
567.85        62.35612
568.29        62.74378
568.72        63.02168
569.16        63.15998
569.60        63.58138
570.03        63.31399
570.47        63.35747
570.90        63.55838
571.34        62.72767
571.77        63.32866
572.21        63.46095
572.64        63.66577
573.08        63.63049
573.51        63.30548
573.95        63.10222
574.38        63.28196
574.82        63.18863
