SpectraSmart Spectrum 2.9.0.0
--------- Device Information -----------
Spectrum Name :  反射率_0
Saving Time :  2024/04/26 22:44:10
Spectro-Module Model Name : SE2030-DUVN
Spectro-Module Serial Number : OS361AC55029948
Wavelength Start : 200
Wavelength End : 1025
Wavelength Unit : Wavelength(nm)
Spectrum Unit : Reflectance(%)
-----------Spectrum Setting ------------
Integration Time : 20ms
Average : 10
Boxcar : 0
Background removal :  enabled
linearity correction :  enabled
SC :  disabled
Intensity correction :  disabled
DWT denoise :  enabled
savitzky-golay :  disabled
FFT :  disabled
Running average :  disabled
Kalman :  disabled
High pass :  disabled
---------------BEGIN--------------------
Wavelength(nm)             Reflectance(%)
200.29               0
200.75        50.33759
201.21        54.48861
201.67         58.6265
202.13         60.8837
202.58         61.1151
203.04        60.24576
203.50        58.84109
203.96        58.22718
204.42         59.4303
204.88        62.16931
205.34        65.31274
205.80        66.99101
206.26        66.60199
206.72        64.61077
207.18        62.74708
207.64        62.58968
208.10        64.37617
208.55         68.8929
209.01        74.08974
209.47        73.16651
209.93         65.3139
210.39        56.27456
210.85        50.66024
211.31        50.39647
211.77         55.8921
212.23        71.38047
212.69        112.2358
213.14        182.3325
213.60        180.9341
214.06        133.3636
214.52        100.6721
214.98        85.68107
215.44         78.9509
215.90         74.4107
216.36        72.02789
216.81        72.92839
217.27        77.78369
217.73        89.04459
218.19        104.5238
218.65        108.8676
219.11        97.52969
219.57        80.97238
220.02        69.62368
220.48        68.48374
220.94        76.15638
221.40        93.05257
221.86        117.5006
222.32        130.5329
222.77        118.2883
223.23        94.60386
223.69         73.5573
224.15        62.42015
224.61        58.88196
225.06        58.66711
225.52        59.76295
225.98        60.01517
226.44        59.09653
226.90        57.90174
227.36        56.43121
227.81           54.66
228.27        52.93313
228.73        51.00023
229.19        49.58899
229.65        49.60646
230.10        50.89923
230.56        53.20817
231.02        55.20753
231.48        54.80297
231.93        51.86231
232.39        47.65098
232.85        43.73701
233.31        42.14893
233.77        43.04962
234.22        45.70167
234.68        49.03898
235.14        51.49558
235.60        52.56077
236.05         52.7229
236.51        52.31207
236.97        52.05894
237.43        52.33529
237.88        52.90299
238.34        53.74701
238.80         55.2162
239.26        57.55269
239.71        61.42843
240.17        66.69125
240.63        72.58558
241.08        78.44903
241.54         83.4379
242.00        88.54065
242.46        96.88553
242.91        111.5943
243.37        134.6127
243.83        167.0728
244.28        196.4455
244.74        201.6085
245.20        180.9794
245.66        152.1466
246.11        131.6243
246.57        120.7707
247.03        114.9847
247.48        110.9016
247.94        104.5986
248.40        97.24946
248.85        91.27509
249.31         87.4127
249.77        84.68517
250.22        82.23599
250.68        79.19707
251.14         75.7021
251.59        73.49667
252.05        73.94414
252.51        76.75369
252.96        79.11465
253.42        78.80299
253.88        76.17085
254.33        72.13252
254.79        69.64273
255.25        70.86699
255.70        75.26167
256.16        81.60822
256.62        86.76745
257.07        86.21638
257.53        81.44668
257.99        75.41151
258.44        70.12299
258.90        67.51521
259.35        66.55151
259.81        66.59204
260.27        66.67928
260.72        65.83208
261.18        64.27681
261.63        62.21213
262.09        60.35814
262.55        58.91418
263.00        57.77377
263.46        56.93788
263.91         56.0082
264.37         54.8355
264.83        53.39689
265.28        51.78262
265.74        50.39143
266.19        49.39817
266.65        48.86464
267.11        48.58739
267.56        48.34865
268.02        47.82091
268.47        46.92708
268.93        45.81611
269.38        44.58443
269.84          43.436
270.30        42.42069
270.75        41.46832
271.21        40.63167
271.66        39.92789
272.12        39.34799
272.57        38.87189
273.03        38.38923
273.48        37.70853
273.94        36.85171
274.39        35.84328
274.85        34.88738
275.31        34.13676
275.76        33.58865
276.22        33.21412
276.67        32.86617
277.13        32.42113
277.58        31.81093
278.04        31.12298
278.49        30.39168
278.95        29.77966
279.40        29.27083
279.86        28.87606
280.31        28.50025
280.77        28.10785
281.22         27.6556
281.68        27.22701
282.13        26.82973
282.59        26.55065
283.04        26.36857
283.50        26.26447
283.95        26.20923
284.41        26.17303
284.86        26.13511
285.32        26.12575
285.77        26.10455
286.22        26.07338
286.68        26.03657
287.13        25.95911
287.59        25.89559
288.04        25.88728
288.50        25.95764
288.95        26.06694
289.41        26.16455
289.86        26.11115
290.32        25.93312
290.77        25.67459
291.22        25.46589
291.68        25.48303
292.13        25.76036
292.59        26.27261
293.04        26.94274
293.50        27.66094
293.95        28.38801
294.40        29.16864
294.86        30.05482
295.31        31.11467
295.77         32.3687
296.22        33.76918
296.68         35.2799
297.13        36.83639
297.58         38.4274
298.04        40.07306
298.49        41.78232
298.95        43.58653
299.40        45.47085
299.85        47.41362
300.31        49.39305
300.76        51.36244
301.21        53.31489
301.67        55.27504
302.12         57.2174
302.58        59.18985
303.03        61.15791
303.48        63.14543
303.94        65.17133
304.39        67.19492
304.84        69.24604
305.30        71.34717
305.75        73.47102
306.20         75.6668
306.66        77.93465
307.11        80.19675
307.57        82.41926
308.02        84.44235
308.47         86.2634
308.93        87.93298
309.38        89.48298
309.83        91.09068
310.29         92.8007
310.74        94.55481
311.19        96.26743
311.65        97.76395
312.10        98.97053
312.55         99.9325
313.00        100.7573
313.46        101.6232
313.91        102.5594
314.36        103.5507
314.82          104.51
315.27        105.3152
315.72        105.9141
316.18        106.3737
316.63        106.7571
317.08         107.214
317.53        107.7864
317.99        108.4244
318.44        109.0633
318.89        109.5649
319.35        109.8902
319.80         110.084
320.25         110.233
320.70        110.4781
321.16        110.8531
321.61        111.3626
322.06        111.8958
322.51        112.2819
322.97        112.4636
323.42        112.4851
323.87        112.5218
324.32        112.8828
324.78        113.5857
325.23        114.6253
325.68         115.623
326.13        115.9605
326.59        115.5083
327.04        114.4908
327.49        113.4084
327.94        113.0817
328.39        113.7038
328.85         115.005
329.30        116.6339
329.75         117.671
330.20        117.8173
330.66        117.3038
331.11          116.58
331.56        116.2894
332.01        116.6373
332.46        117.4034
332.92        118.2805
333.37        118.9326
333.82         119.167
334.27        119.1658
334.72        119.0888
335.17        119.1635
335.63        119.4697
336.08        119.9839
336.53        120.6733
336.98        121.5477
337.43        122.5675
337.88        123.6928
338.34        124.8174
338.79        125.8908
339.24        126.7946
339.69        127.5292
340.14        127.9944
340.59        128.0639
341.05        127.7952
341.50        127.2603
341.95        126.7409
342.40        126.6541
342.85        127.1029
343.30        127.9828
343.75        129.0804
344.20        130.0207
344.66        130.6692
345.11        131.0969
345.56        131.3808
346.01        131.6611
346.46        131.9893
346.91        132.3215
347.36        132.5927
347.81        132.7299
348.26        132.7198
348.72        132.5829
349.17        132.4512
349.62        132.5624
350.07        132.9454
350.52        133.5522
350.97        134.0701
351.42        133.9967
351.87        133.2667
352.32        132.0603
352.77        130.8545
353.22        130.3463
353.67        130.6632
354.13        131.5848
354.58        132.6598
355.03         133.089
355.48        132.6535
355.93        131.5847
356.38        130.3387
356.83        129.6033
357.28        129.5157
357.73        129.8317
358.18        130.1404
358.63        129.7956
359.08        128.6594
359.53         126.995
359.98        125.1842
360.43        123.7631
360.88        122.8599
361.33        122.2969
361.78        121.8554
362.23        121.1989
362.68        120.2426
363.13        119.1267
363.58        117.9727
364.03        116.9445
364.48        116.0831
364.93        115.3025
365.38        114.5703
365.83        113.8612
366.28        113.1525
366.73        112.4596
367.18        111.7334
367.63        110.8831
368.08        109.9024
368.53        108.8308
368.98        107.7427
369.43        106.7561
369.88        105.9097
370.33        105.1744
370.78        104.5331
371.23        103.9588
371.68        103.4266
372.13         102.928
372.58        102.4319
373.03        101.8869
373.48        101.2664
373.93        100.5682
374.38        99.77969
374.83        98.89973
375.28        97.95171
375.72        96.93983
376.17        95.97874
376.62        95.11504
377.07        94.38052
377.52        93.79011
377.97        93.31428
378.42        92.91202
378.87        92.55916
379.32        92.21382
379.77        91.94405
380.22         91.8536
380.67         91.9202
381.11        92.13493
381.56        92.17695
382.01        91.62861
382.46        90.47407
382.91        88.93119
383.36        87.45004
383.81        86.64162
384.26        86.58975
384.71        87.07896
385.15        87.78992
385.60        88.15702
386.05         88.0018
386.50        87.49232
386.95        86.75074
387.40        85.97922
387.85        85.27705
388.29        84.53361
388.74        83.91241
389.19        83.42516
389.64         83.0663
390.09        82.84191
390.54        82.66682
390.98         82.3672
391.43        81.94682
391.88        81.43509
392.33        80.94817
392.78        80.57786
393.23        80.32623
393.67        80.32906
394.12        80.49378
394.57         80.0284
395.02        79.13332
395.47        78.99951
395.91        79.53981
396.36        79.53865
396.81        78.97364
397.26        78.55678
397.71        78.32317
398.15        78.04438
398.60        77.82513
399.05        77.49762
399.50        77.15334
399.95        77.27718
400.39        77.71676
400.84        77.56456
401.29        76.83646
401.74        76.32037
402.18        76.07629
402.63        75.62053
403.08        75.07124
403.53        74.80345
403.97        74.83572
404.42        75.06422
404.87        75.33858
405.32        75.36897
405.76        75.08005
406.21         74.7163
406.66        74.36613
407.11        73.91481
407.55        73.57469
408.00        73.83138
408.45        74.52319
408.90        74.93179
409.34        74.80437
409.79        74.10891
410.24        73.14547
410.68        72.60123
411.13        72.58027
411.58        72.71921
412.03        72.85113
412.47        72.85326
412.92        72.64046
413.37        72.29383
413.81        71.94587
414.26        71.85661
414.71        72.03961
415.15        72.43165
415.60        72.87453
416.05        73.17806
416.49        73.27274
416.94        73.20714
417.39        73.04989
417.83        72.89396
418.28        72.78181
418.73        72.67925
419.17        72.60252
419.62        72.58517
420.07        72.61794
420.51        72.67631
420.96        72.74412
421.41        72.71727
421.85         72.5629
422.30        72.42407
422.74        72.25723
423.19        72.04524
423.64        71.80195
424.08        71.66914
424.53        71.69572
424.98        71.85519
425.42        72.13963
425.87        72.67889
426.31        73.25677
426.76        73.15054
427.21        72.47372
427.65        72.08805
428.10        72.06423
428.54        72.03671
428.99        72.09502
429.44        72.02348
429.88        71.97119
430.33        73.00211
430.77        74.57715
431.22         74.6298
431.66        73.92123
432.11        73.01891
432.56        72.47536
433.00        72.28704
433.45        72.67165
433.89        73.43626
434.34        73.69619
434.78        75.39474
435.23        73.59103
435.67        71.59301
436.12        72.39142
436.57        72.59435
437.01        73.18856
437.46        73.34884
437.90        73.07222
438.35        72.83829
438.79        72.75979
439.24        72.78526
439.68        72.88548
440.13        73.32906
440.57        73.99828
441.02        73.90749
441.46        73.26169
441.91        73.90002
442.35        75.32319
442.80        75.21854
443.24        73.99936
443.69        73.88163
444.13        74.85751
444.58        75.21135
445.02        74.90309
445.47        74.86872
445.91        75.12144
446.36        75.30753
446.80        75.40524
447.24        75.49648
447.69        75.60523
448.13        75.75185
448.58        75.94871
449.02        76.14748
449.47        76.30279
449.91        76.31565
450.36        76.20021
450.80        75.97326
451.25        75.74282
451.69        75.61208
452.13        75.62746
452.58        75.74713
453.02        75.91267
453.47        76.03818
453.91        76.07643
454.36        76.05141
454.80         75.9575
455.24        75.73167
455.69        75.39082
456.13        75.08349
456.58        74.86763
457.02        74.31039
457.46        73.66048
457.91        73.83818
458.35        74.55083
458.79        74.59777
459.24        73.97841
459.68        73.21943
460.13        72.57568
460.57        72.36413
461.01        72.74152
461.46         72.7247
461.90        72.94723
462.34        74.26241
462.79        73.42156
463.23        73.73407
463.68        74.00756
464.12        73.85169
464.56        73.20734
465.01        72.22862
465.45        71.26794
465.89        71.11091
466.34        71.59552
466.78        72.10339
467.22         72.4857
467.67        71.71394
468.11        71.43798
468.55        71.42176
468.99        72.00124
469.44        72.05531
469.88        71.56555
470.32        71.21209
470.77        71.06283
471.21        70.91743
471.65        70.78157
472.10        70.73087
472.54        70.73021
472.98        70.68965
473.42        70.58237
473.87         70.5511
474.31        70.52827
474.75        70.21795
475.20        69.75446
475.64         69.7357
476.08        70.13325
476.52        70.11976
476.97        69.57614
477.41         69.6773
477.85        69.91098
478.29        69.03538
478.74        69.06155
479.18        70.05278
479.62        69.74519
480.06        69.97759
480.50        69.87378
480.95        69.78944
481.39        69.76088
481.83        69.55694
482.27        69.37854
482.72        70.09942
483.16        69.79433
483.60        69.91994
484.04        69.85498
484.48        70.04221
484.93        70.20575
485.37        69.52755
485.81        68.97211
486.25        68.75481
486.69        69.38319
487.14         71.9024
487.58        70.80058
488.02        69.67976
488.46        68.85781
488.90        68.71639
489.34        70.31891
489.79        70.90266
490.23        70.21986
490.67        69.48189
491.11        68.89513
491.55        68.74814
491.99        68.97475
492.43        68.88469
492.88        68.47626
493.32        68.35259
493.76        68.53453
494.20        68.67992
494.64        68.75343
495.08        68.89384
495.52        69.04543
495.96        69.02066
496.41        68.84978
496.85        68.77779
497.29        68.70914
497.73        68.75142
498.17        68.07735
498.61        67.95424
499.05        68.12742
499.49        68.33759
499.93        68.28777
500.37        68.45509
500.82        68.70818
501.26        68.67063
501.70        68.40705
502.14        68.50407
502.58        68.75915
503.02        68.88667
503.46        68.81569
503.90        68.81692
504.34        68.85705
504.78        68.76004
505.22        68.52527
505.66        68.20055
506.10        67.88963
506.54        67.75375
506.98        67.80043
507.42         67.9633
507.86        68.17675
508.30        68.10487
508.74        68.18418
509.18        68.03206
509.62        67.84599
510.06           67.73
510.50        67.71603
510.94        67.75996
511.38        67.82901
511.82        67.88555
512.26        67.91405
512.70        67.93448
513.14        67.95042
513.58        67.96317
514.02        67.97463
514.46        67.97476
514.90        67.97545
515.34        68.00064
515.78        68.04919
516.22        68.11202
516.66        68.15602
517.10        68.12731
517.54        68.01903
517.98        67.85546
518.42        67.67708
518.86        67.54529
519.30         67.4812
519.74        67.47571
520.18        67.51414
520.62        67.55679
521.06        67.59894
521.50        67.67831
521.93        67.78542
522.37        67.85483
522.81        67.88476
523.25        67.89116
523.69        67.88479
524.13        67.88191
524.57        67.88288
525.01        67.87376
525.45        67.84649
525.89         67.7873
526.32        67.69019
526.76        67.59115
527.20        67.47344
527.64        67.32208
528.08        67.14697
528.52        66.93526
528.96        66.76156
529.40        66.78294
529.83        66.98535
530.27           67.24
530.71        67.44398
531.15        67.52432
531.59        67.44933
532.03        67.21314
532.46        66.90658
532.90        66.74786
533.34        66.76984
533.78        66.86961
534.22        66.97697
534.66        67.06699
535.09        67.06386
535.53        66.85535
535.97         66.5125
536.41        66.31628
536.85        66.30433
537.28        66.33282
537.72         66.3963
538.16         66.5402
538.60        66.74203
539.04        66.98164
539.47        67.18119
539.91        67.26349
540.35        67.20167
540.79        67.02895
541.22        66.80403
541.66        66.65611
542.10        66.61491
542.54        66.62936
542.97        66.65915
543.41        66.76528
543.85        66.76475
544.29        66.79665
544.72        66.79517
545.16        66.75657
545.60        66.66917
546.04        66.58656
546.47         66.5319
546.91        66.45029
547.35        66.40004
547.79        66.55138
548.22        66.82915
548.66        67.00966
549.10        67.08766
549.53        66.95993
549.97        66.71783
550.41         66.5005
550.84        66.39583
551.28        66.49438
551.72        66.72476
552.15        66.84792
552.59         66.8337
553.03        66.73625
553.46        66.89392
553.90         66.7438
554.34        66.40678
554.77        66.69852
555.21        66.50579
555.65          66.177
556.08        66.58315
556.52        66.68419
556.96        66.77254
557.39        66.90238
557.83        67.02346
558.27        66.76126
558.70        66.21757
559.14        66.00477
559.57         66.1226
560.01        66.14806
560.45        66.08762
560.88         66.2664
561.32        66.63335
561.75        66.82529
562.19        66.82796
562.63        66.73343
563.06        66.58655
563.50        66.51521
563.93        66.47221
564.37         66.4068
564.80        66.35877
565.24        66.28048
565.68        66.01788
566.11        66.72374
566.55        66.00156
566.98         65.7832
567.42        65.55246
567.85        65.74807
568.29        66.29647
568.72        66.69797
569.16        67.00368
569.60        67.12882
570.03         67.2424
570.47        67.47649
570.90        68.00495
571.34        66.80633
571.77        67.46497
572.21        68.01125
572.64        67.48357
573.08        68.11796
573.51        67.10033
573.95        67.05711
574.38        67.49836
574.82        67.53022
