SpectraSmart Spectrum 2.9.0.0
--------- Device Information -----------
Spectrum Name :  反射率_0
Saving Time :  2024/04/26 22:46:11
Spectro-Module Model Name : SE2030-DUVN
Spectro-Module Serial Number : OS361AC55029948
Wavelength Start : 200
Wavelength End : 1025
Wavelength Unit : Wavelength(nm)
Spectrum Unit : Reflectance(%)
-----------Spectrum Setting ------------
Integration Time : 20ms
Average : 10
Boxcar : 0
Background removal :  enabled
linearity correction :  enabled
SC :  disabled
Intensity correction :  disabled
DWT denoise :  enabled
savitzky-golay :  disabled
FFT :  disabled
Running average :  disabled
Kalman :  disabled
High pass :  disabled
---------------BEGIN--------------------
Wavelength(nm)             Reflectance(%)
200.29               0
200.75        41.69645
201.21        37.69594
201.67        34.41911
202.13        33.26258
202.58        34.17484
203.04        37.19782
203.50        42.22023
203.96        47.48386
204.42        51.38765
204.88        54.01692
205.34        54.96069
205.80         54.5173
206.26        53.11819
206.72        50.38427
207.18        48.00636
207.64        47.58725
208.10        49.27443
208.55        54.10448
209.01        60.10563
209.47         59.6328
209.93        51.53858
210.39        41.97084
210.85        36.09071
211.31        36.28299
211.77        43.25038
212.23        62.15437
212.69        111.4435
213.14        194.9668
213.60        192.2752
214.06        134.0319
214.52        93.89838
214.98        74.75636
215.44        65.03084
215.90        57.64196
216.36        52.08154
216.81        48.85515
217.27        48.23679
217.73        51.65261
218.19        57.58612
218.65        57.69246
219.11         50.6543
219.57        42.23001
220.02        37.68033
220.48        40.02293
220.94        49.06351
221.40        65.79066
221.86        90.01524
222.32        106.8235
222.77        102.2431
223.23         86.1076
223.69        68.81882
224.15         56.1901
224.61        47.88545
225.06        41.64162
225.52        37.74367
225.98        36.44093
226.44        37.21059
226.90        39.79836
227.36        42.70643
227.81        43.31966
228.27        41.39376
228.73        37.85379
229.19        34.57987
229.65        33.75802
230.10        35.43775
230.56        38.78053
231.02        42.22096
231.48        43.28611
231.93        41.57669
232.39        38.43277
232.85        35.28322
233.31        33.93709
233.77        34.61158
234.22        36.66084
234.68        39.25278
235.14        41.23782
235.60         42.2455
236.05        42.68484
236.51        42.83756
236.97        43.21702
237.43        44.05248
237.88        45.11098
238.34        46.35128
238.80        48.08977
239.26          50.555
239.71        54.33844
240.17        59.15728
240.63        64.01163
241.08        68.11746
241.54        70.69276
242.00        73.06142
242.46        78.75922
242.91        90.77737
243.37        111.0712
243.83        140.2422
244.28        165.0902
244.74        165.8358
245.20        142.5515
245.66        113.3879
246.11        94.41582
246.57        86.38951
247.03        84.55514
247.48        85.16396
247.94        82.66913
248.40        77.55312
248.85         72.9571
249.31        70.19852
249.77        69.30961
250.22        69.84709
250.68        70.96705
251.14         73.2562
251.59        77.49666
252.05        82.87923
252.51        88.84873
252.96        91.43601
253.42        87.96347
253.88        80.00007
254.33        69.55521
254.79        62.09941
255.25        62.06122
255.70        68.59695
256.16        79.50258
256.62        89.30759
257.07        89.93314
257.53        83.26387
257.99        74.36543
258.44        67.15335
258.90        64.87246
259.35        66.06004
259.81        69.17857
260.27        72.20839
260.72        72.77025
261.18        71.08129
261.63        68.05779
262.09        65.21187
262.55        63.49569
263.00        62.79755
263.46          62.768
263.91        62.62256
264.37        61.76799
264.83        60.14724
265.28        58.09145
265.74        56.24418
266.19        55.03833
266.65        54.58031
267.11         54.5282
267.56        54.57534
268.02        54.26811
268.47        53.46895
268.93        52.38371
269.38        51.06247
269.84        49.64104
270.30        48.18497
270.75        46.64999
271.21        45.23919
271.66        44.19384
272.12        43.54531
272.57        43.20969
273.03        42.92934
273.48        42.26344
273.94        41.19193
274.39        39.83613
274.85        38.53043
275.31         37.5936
275.76         37.0513
276.22        36.80382
276.67        36.64034
277.13        36.36674
277.58        35.87565
278.04         35.2713
278.49        34.57588
278.95        33.94412
279.40        33.35621
279.86        32.83199
280.31        32.27821
280.77        31.68073
281.22        31.00611
281.68        30.35348
282.13        29.75019
282.59        29.31122
283.04        29.01904
283.50        28.86177
283.95        28.78766
284.41        28.73246
284.86        28.66802
285.32        28.62778
285.77        28.61176
286.22        28.68776
286.68        28.85658
287.13        29.04743
287.59        29.22776
288.04        29.30545
288.50        29.28363
288.95        29.16496
289.41         29.0004
289.86        28.79138
290.32        28.60258
290.77        28.44577
291.22        28.37483
291.68        28.44587
292.13        28.67598
292.59        29.08609
293.04        29.69546
293.50        30.54443
293.95        31.60946
294.40        32.86135
294.86        34.22922
295.31        35.59682
295.77        36.93153
296.22          38.232
296.68        39.53146
297.13        40.87511
297.58        42.29146
298.04        43.77445
298.49        45.30978
298.95         46.8951
299.40        48.51344
299.85        50.17258
300.31        51.88646
300.76        53.64869
301.21        55.45989
301.67        57.32817
302.12        59.19113
302.58        61.04576
303.03        62.84371
303.48        64.62271
303.94        66.42828
304.39        68.26002
304.84        70.15308
305.30        72.11098
305.75        74.08531
306.20        76.09439
306.66        78.13804
307.11         80.1643
307.57        82.15027
308.02        83.95001
308.47        85.57085
308.93         87.0548
309.38        88.46288
309.83          90.016
310.29        91.75376
310.74        93.59889
311.19        95.39697
311.65        96.86128
312.10        97.90208
312.55         98.6106
313.00        99.16761
313.46        99.86308
313.91        100.7532
314.36        101.7812
314.82        102.8361
315.27        103.7544
315.72        104.4588
316.18        105.0303
316.63        105.4925
317.08        105.9331
317.53        106.3905
317.99        106.8278
318.44        107.2574
318.89        107.6737
319.35        108.0666
319.80        108.4437
320.25        108.8063
320.70        109.1526
321.16        109.4827
321.61         109.847
322.06        110.2029
322.51        110.4933
322.97        110.6936
323.42        110.8051
323.87        110.9635
324.32         111.418
324.78        112.1611
325.23        113.2058
325.68        114.1741
326.13        114.4447
326.59        113.9004
327.04        112.7769
327.49        111.5934
327.94        111.1985
328.39        111.7966
328.85        113.1109
329.30        114.8094
329.75        116.0037
330.20        116.3826
330.66        116.1526
331.11        115.6833
331.56        115.4988
332.01        115.7749
332.46        116.3166
332.92        116.8884
333.37        117.2852
333.82        117.3696
334.27        117.3079
334.72        117.2248
335.17        117.2786
335.63        117.5318
336.08        117.9859
336.53        118.6527
336.98        119.6098
337.43         120.823
337.88        122.2135
338.34        123.5985
338.79        124.8056
339.24        125.6798
339.69         126.257
340.14        126.4972
340.59        126.3747
341.05        125.9906
341.50        125.4018
341.95        124.8754
342.40        124.8037
342.85         125.274
343.30        126.1785
343.75        127.3187
344.20        128.3376
344.66        129.0958
345.11        129.6629
345.56        130.0381
346.01        130.2443
346.46        130.3299
346.91        130.2938
347.36        130.2255
347.81        130.2929
348.26        130.5178
348.72        130.8335
349.17        131.1956
349.62        131.5583
350.07        131.8809
350.52        132.2122
350.97         132.359
351.42        132.0174
351.87         131.191
352.32        129.9936
352.77        128.8763
353.22        128.5013
353.67        128.9707
354.13        130.0816
354.58        131.3358
355.03        131.8445
355.48        131.3719
355.93        130.1702
356.38        128.7612
356.83        127.9391
357.28        127.8708
357.73        128.2897
358.18        128.7409
358.63        128.5038
359.08        127.4131
359.53        125.7438
359.98        123.9221
360.43        122.5493
360.88        121.7645
361.33         121.377
361.78        121.0859
362.23        120.4265
362.68        119.3009
363.13        117.8936
363.58        116.4711
364.03        115.4204
364.48        114.8207
364.93        114.5133
365.38        114.2934
365.83        113.8523
366.28        113.0955
366.73        112.1268
367.18        111.0504
367.63        110.0164
368.08        109.0847
368.53        108.2207
368.98        107.3977
369.43        106.5769
369.88        105.7503
370.33        104.9388
370.78        104.1983
371.23        103.6145
371.68        103.1936
372.13        102.8906
372.58        102.5942
373.03        102.1306
373.48        101.4522
373.93        100.6012
374.38        99.66373
374.83        98.79652
375.28        98.04411
375.72        97.33422
376.17        96.68188
376.62        95.98627
377.07        95.24493
377.52        94.53864
377.97        93.86166
378.42        93.21313
378.87        92.61023
379.32        92.00496
379.77        91.55336
380.22        91.48866
380.67        91.79913
381.11        92.44558
381.56        92.96364
382.01        92.67073
382.46         91.4802
382.91        89.68761
383.36        87.89931
383.81         86.9567
384.26         86.9922
384.71        87.71713
385.15        88.70965
385.60         89.2338
386.05        89.06085
386.50        88.42107
386.95        87.51444
387.40         86.6539
387.85        85.97173
388.29        85.32199
388.74        84.81665
389.19        84.40285
389.64        84.06041
390.09        83.80751
390.54        83.61932
390.98        83.41503
391.43        83.20928
391.88        82.99174
392.33        82.76208
392.78        82.48688
393.23        82.16166
393.67         81.8751
394.12        81.69199
394.57        81.27478
395.02        80.75649
395.47        80.74948
395.91        81.14579
396.36        81.17245
396.81        80.79006
397.26        80.40424
397.71        80.11019
398.15        79.86297
398.60        79.77144
399.05        79.73058
399.50        79.67796
399.95        79.65051
400.39        79.61079
400.84        79.22256
401.29        78.58094
401.74        78.31275
402.18        78.34055
402.63        77.79705
403.08        76.87824
403.53        76.53912
403.97        76.81804
404.42        77.22232
404.87        77.54296
405.32        77.60001
405.76        77.31546
406.21        76.88195
406.66        76.40044
407.11        75.90124
407.55        75.58467
408.00        75.61857
408.45        75.95588
408.90        76.55213
409.34        77.04678
409.79        76.56187
410.24        75.39317
410.68        74.83493
411.13        74.99332
411.58        75.14503
412.03        75.14137
412.47         75.0839
412.92         74.9099
413.37        74.63551
413.81        74.36929
414.26          74.338
414.71        74.54819
415.15        74.96601
415.60        75.43168
416.05        75.74818
416.49         75.8452
416.94        75.75772
417.39        75.59134
417.83        75.49633
418.28         75.5211
418.73        75.62676
419.17        75.73116
419.62        75.70764
420.07        75.52528
420.51        75.21198
420.96        74.92062
421.41        74.78502
421.85        74.80143
422.30         75.0832
422.74        75.39233
423.19        75.28368
423.64        74.79049
424.08        74.49277
424.53        74.48773
424.98        74.53016
425.42        74.64587
425.87        75.08389
426.31        75.66399
426.76        75.71945
427.21        75.29966
427.65        75.04689
428.10        74.99113
428.54        74.86011
428.99        74.72555
429.44         74.4377
429.88        74.19739
430.33        74.82861
430.77        75.94367
431.22        76.46781
431.66        76.26023
432.11        75.71002
432.56        75.10262
433.00        74.89593
433.45        75.34393
433.89        76.22918
434.34        76.75675
434.78        78.02831
435.23        77.02809
435.67        74.73656
436.12        75.03593
436.57        75.12897
437.01        76.02358
437.46        76.29766
437.90        75.93472
438.35        75.32726
438.79        75.46748
439.24        75.49785
439.68        75.64355
440.13        76.13281
440.57        76.81718
441.02        76.77924
441.46        76.15837
441.91        76.52795
442.35        77.50417
442.80        77.30786
443.24        76.16418
443.69        76.09177
444.13        77.02045
444.58         77.4375
445.02        77.28419
445.47        77.37318
445.91        77.70725
446.36        77.95227
446.80        78.08139
447.24        78.20505
447.69         78.3077
448.13         78.2853
448.58         78.2585
449.02        78.16923
449.47        78.09392
449.91        78.17133
450.36        78.34453
450.80        78.24965
451.25        77.97279
451.69        77.85739
452.13        77.96175
452.58         78.1446
453.02        78.34314
453.47        78.48421
453.91        78.51768
454.36        78.49487
454.80        78.43592
455.24        78.18432
455.69        77.73972
456.13         77.5073
456.58        77.55486
457.02        76.50233
457.46        75.92507
457.91        76.17062
458.35        77.23521
458.79        77.42246
459.24        76.72307
459.68        75.87813
460.13        75.16889
460.57        74.92666
461.01        75.33809
461.46        75.10203
461.90        75.58273
462.34         76.6374
462.79        76.11176
463.23        76.26724
463.68        76.55553
464.12        76.34113
464.56        75.69294
465.01        74.84283
465.45        74.04119
465.89        73.82737
466.34        74.09803
466.78        74.49825
467.22        74.86832
467.67        74.35423
468.11        73.86515
468.55        73.91797
468.99        74.61792
469.44        74.76595
469.88        74.32927
470.32        74.02052
470.77        73.91817
471.21        73.82134
471.65        73.73624
472.10        73.72269
472.54        73.74709
472.98        73.73172
473.42          73.648
473.87        73.63342
474.31        73.59634
474.75        73.22283
475.20        72.65739
475.64        72.46649
476.08        72.67938
476.52        72.63638
476.97        72.25097
477.41        72.29377
477.85        72.93507
478.29        71.94584
478.74        72.48047
479.18        73.18452
479.62        72.52776
480.06        72.52901
480.50         72.4582
480.95        72.42282
481.39        72.41138
481.83        72.07207
482.27         72.0761
482.72        72.39308
483.16        72.27419
483.60        72.18008
484.04        72.46284
484.48        72.63775
484.93        72.51112
485.37        72.66663
485.81        71.82809
486.25        71.06836
486.69        71.27193
487.14        73.39027
487.58        72.85911
488.02        72.46912
488.46        71.75678
488.90        71.83649
489.34        72.59592
489.79        73.61151
490.23        73.02074
490.67        72.34035
491.11        71.42954
491.55        71.20361
491.99        71.59884
492.43        71.57147
492.88        71.11367
493.32        70.96032
493.76        71.14743
494.20        71.29849
494.64        71.37347
495.08        71.54896
495.52         71.7486
495.96        71.63845
496.41        71.28737
496.85        71.24796
497.29        71.37754
497.73        71.37357
498.17        70.42016
498.61        70.33752
499.05        70.81818
499.49        71.02917
499.93        70.67942
500.37        70.82809
500.82        71.33244
501.26        71.24559
501.70        70.59592
502.14        70.99592
502.58        70.94405
503.02        71.15231
503.46        71.15893
503.90        71.29585
504.34        71.48988
504.78        71.50457
505.22        71.32865
505.66        71.03214
506.10         70.7466
506.54        70.54858
506.98        70.45314
507.42        70.65613
507.86        71.14138
508.30        70.61162
508.74        71.04537
509.18        70.86453
509.62        70.71751
510.06        70.63138
510.50        70.64117
510.94        70.69445
511.38         70.7492
511.82        70.79806
512.26        70.82629
512.70        70.84776
513.14        70.86062
513.58        70.85718
514.02        70.83967
514.46        70.80493
514.90        70.77409
515.34        70.78507
515.78        70.83972
516.22        70.92097
516.66        70.99264
517.10         70.9983
517.54         70.9254
517.98         70.7933
518.42        70.63144
518.86        70.49115
519.30        70.39302
519.74        70.32433
520.18        70.29173
520.62        70.30424
521.06        70.35861
521.50        70.45396
521.93        70.56847
522.37        70.64211
522.81        70.66793
523.25        70.65131
523.69        70.61653
524.13        70.60783
524.57        70.63081
525.01        70.66426
525.45         70.6825
525.89        70.64481
526.32        70.53674
526.76        70.39936
527.20        70.24162
527.64        70.08198
528.08         69.9354
528.52        69.79879
528.96         69.7046
529.40        69.70145
529.83        69.78816
530.27        69.95513
530.71        70.13331
531.15        70.22017
531.59        70.19109
532.03        70.06722
532.46        69.89997
532.90        69.82308
533.34        69.85049
533.78        69.90469
534.22        69.93034
534.66        69.92918
535.09        69.83636
535.53        69.52699
535.97        69.08969
536.41        68.84004
536.85        68.82001
537.28         68.8784
537.72        68.98795
538.16        69.15582
538.60        69.35123
539.04        69.56649
539.47        69.74125
539.91        69.82983
540.35         69.8085
540.79        69.69151
541.22        69.53121
541.66        69.43986
542.10        69.43672
542.54        69.49651
542.97        69.56231
543.41        69.57375
543.85        69.50757
544.29        69.40054
544.72        69.27962
545.16        69.22451
545.60        69.23804
546.04        69.30202
546.47        69.40381
546.91        69.51642
547.35        69.61954
547.79        69.72079
548.22        69.79972
548.66        69.80676
549.10        69.81384
549.53        69.79691
549.97        69.76687
550.41        69.59188
550.84        69.35809
551.28        69.26597
551.72        69.27554
552.15        69.33319
552.59        69.50994
553.03        68.88328
553.46        69.54871
553.90        69.31565
554.34         69.4075
554.77        69.36022
555.21        69.41439
555.65        69.36415
556.08        69.51563
556.52        69.59296
556.96        69.63789
557.39        69.65191
557.83        69.62748
558.27        69.42632
558.70        69.09643
559.14        68.94415
559.57        68.94321
560.01        68.84564
560.45        68.70339
560.88        68.78007
561.32        69.06203
561.75        69.35948
562.19        69.59026
562.63         69.4904
563.06        69.15491
563.50        69.14402
563.93         69.3724
564.37        69.40692
564.80        69.24567
565.24        69.12259
565.68        68.64841
566.11           69.33
566.55        68.60574
566.98        68.47947
567.42        68.35485
567.85        68.52961
568.29        68.95473
568.72         69.3246
569.16        69.66909
569.60        69.74313
570.03        69.75678
570.47        69.85749
570.90        70.17643
571.34        69.10186
571.77          69.355
572.21        69.52926
572.64        69.81681
573.08        70.00713
573.51        69.39015
573.95        69.31463
574.38        69.76514
574.82        69.88431
