SpectraSmart Spectrum 2.9.0.0
--------- Device Information -----------
Spectrum Name :  反射率_0
Saving Time :  2024/04/26 22:36:43
Spectro-Module Model Name : SE2030-DUVN
Spectro-Module Serial Number : OS361AC55029948
Wavelength Start : 200
Wavelength End : 1025
Wavelength Unit : Wavelength(nm)
Spectrum Unit : Reflectance(%)
-----------Spectrum Setting ------------
Integration Time : 20ms
Average : 10
Boxcar : 0
Background removal :  enabled
linearity correction :  enabled
SC :  disabled
Intensity correction :  disabled
DWT denoise :  enabled
savitzky-golay :  disabled
FFT :  disabled
Running average :  disabled
Kalman :  disabled
High pass :  disabled
---------------BEGIN--------------------
Wavelength(nm)             Reflectance(%)
200.29               0
200.75        40.63989
201.21        37.06963
201.67        34.69844
202.13        34.19742
202.58        35.38605
203.04        38.68435
203.50        43.78126
203.96        48.33338
204.42        50.47276
204.88        50.05245
205.34        48.02671
205.80        47.15666
206.26        48.11844
206.72        49.54112
207.18        50.72446
207.64         51.1906
208.10        50.92988
208.55        50.65875
209.01        49.53492
209.47        47.01678
209.93        44.39759
210.39        42.68001
210.85        42.34645
211.31        43.81148
211.77        47.74799
212.23        57.02346
212.69        81.17752
213.14        126.3419
213.60         131.493
214.06        105.3667
214.52        85.50823
214.98        75.47503
215.44        69.90901
215.90        65.00594
216.36        61.15918
216.81        59.64938
217.27        61.10277
217.73         66.8204
218.19        74.95367
218.65        75.48857
219.11        66.59443
219.57        55.57631
220.02        48.79993
220.48        49.31173
220.94        56.37108
221.40        70.62554
221.86        91.38525
222.32        104.5093
222.77        98.03031
223.23        81.64828
223.69        65.64962
224.15        55.62908
224.61        50.55543
225.06        47.73329
225.52        46.44464
225.98        45.86219
226.44        45.65039
226.90         46.0844
227.36        46.66681
227.81        46.47948
228.27        45.54429
228.73        44.00469
229.19        42.73849
229.65        42.82201
230.10         44.2254
230.56        46.59825
231.02        48.85632
231.48        49.27842
231.93        47.66058
232.39        45.02523
232.85         42.5353
233.31         41.7354
233.77        42.73533
234.22         44.9197
234.68        47.50122
235.14         49.3653
235.60        50.13365
236.05        50.23354
236.51        49.68652
236.97        48.60429
237.43        47.24706
237.88        45.64205
238.34        44.43991
238.80        44.98665
239.26        47.83192
239.71        53.53263
240.17        61.63694
240.63        69.89195
241.08        76.45916
241.54        80.52002
242.00        83.08004
242.46        87.63199
242.91        97.07883
243.37         111.898
243.83        133.1694
244.28        153.7561
244.74        159.7933
245.20        149.7898
245.66        133.1911
246.11        118.9064
246.57        108.5347
247.03        99.95182
247.48        91.93117
247.94        84.39939
248.40        78.94231
248.85        75.63717
249.31        74.60806
249.77        75.26887
250.22        77.16811
250.68        80.24524
251.14        83.91743
251.59         85.6982
252.05         84.4727
252.51        81.92553
252.96        78.41943
253.42        74.77115
253.88        71.35706
254.33         67.8758
254.79        66.59638
255.25        69.13053
255.70        74.82697
256.16        82.75145
256.62        89.33478
257.07        89.29177
257.53        84.24211
257.99        77.54984
258.44        71.87663
258.90        69.66798
259.35        69.76986
259.81         71.3459
260.27        72.91491
260.72        72.79365
261.18        71.23854
261.63        68.72183
262.09        66.56451
262.55        65.56577
263.00        65.51469
263.46        66.10484
263.91        66.35476
264.37        65.41608
264.83        63.27407
265.28        60.40968
265.74        57.74919
266.19         56.0727
266.65        55.53447
267.11         55.6866
267.56        56.05388
268.02        55.90427
268.47        55.03592
268.93        53.75812
269.38         52.2576
269.84        50.87376
270.30        49.70547
270.75        48.60664
271.21        47.66653
271.66        46.97063
272.12        46.50143
272.57        46.21923
273.03        45.90203
273.48        45.16093
273.94        44.00867
274.39        42.55686
274.85        41.14719
275.31        40.10536
275.76        39.45618
276.22        39.09948
276.67        38.84464
277.13        38.52607
277.58         38.0313
278.04        37.46588
278.49        36.78274
278.95        36.03983
279.40        35.21964
279.86         34.3905
280.31        33.57262
280.77        32.91949
281.22        32.40073
281.68        32.03298
282.13        31.72416
282.59        31.43442
283.04        31.11179
283.50        30.80184
283.95        30.50025
284.41        30.22351
284.86        29.98485
285.32        29.80563
285.77        29.69316
286.22        29.72705
286.68        29.90231
287.13        30.14042
287.59         30.3969
288.04        30.55417
288.50        30.59894
288.95        30.52909
289.41        30.37158
289.86        30.09443
290.32        29.76605
290.77        29.41327
291.22        29.13084
291.68        29.03568
292.13        29.15815
292.59        29.50207
293.04        30.06306
293.50        30.84264
293.95        31.80442
294.40        32.93187
294.86        34.16221
295.31        35.38954
295.77        36.58897
296.22        37.76127
296.68        38.93874
297.13        40.16591
297.58        41.47307
298.04        42.85256
298.49        44.30553
298.95        45.85457
299.40        47.47577
299.85        49.15501
300.31         50.8674
300.76        52.54829
301.21        54.19028
301.67        55.83196
302.12        57.43051
302.58        59.01331
303.03        60.55055
303.48        62.06618
303.94        63.64635
304.39        65.35177
304.84        67.21368
305.30        69.21847
305.75         71.2212
306.20        73.08817
306.66        74.79945
307.11        76.35323
307.57        77.85353
308.02        79.35718
308.47        80.90239
308.93        82.45814
309.38         83.9603
309.83        85.43064
310.29        86.86928
310.74        88.27785
311.19        89.59889
311.65        90.70368
312.10        91.55684
312.55        92.19598
313.00        92.76863
313.46        93.51525
313.91         94.4649
314.36        95.57307
314.82        96.69436
315.27        97.60398
315.72        98.21343
316.18        98.60886
316.63         98.8647
317.08         99.1524
317.53        99.52901
317.99        99.93951
318.44        100.3528
318.89        100.6884
319.35        100.9257
319.80        101.1088
320.25        101.2837
320.70        101.5185
321.16        101.8271
321.61        102.2193
322.06         102.639
322.51        103.0058
322.97        103.2797
323.42         103.481
323.87        103.6849
324.32        104.0403
324.78         104.537
325.23        105.2043
325.68         105.818
326.13        106.0273
326.59        105.7632
327.04        105.1613
327.49          104.53
327.94        104.3869
328.39         104.852
328.85        105.7495
329.30        106.8695
329.75        107.5747
330.20        107.6702
330.66        107.3093
331.11        106.8396
331.56        106.7492
332.01        107.1839
332.46        107.9681
332.92        108.8317
333.37        109.4812
333.82        109.7418
334.27        109.7657
334.72        109.6733
335.17        109.6424
335.63        109.7491
336.08        109.9922
336.53        110.4035
336.98        111.0883
337.43        112.0348
337.88        113.1845
338.34        114.3806
338.79        115.4666
339.24        116.3041
339.69        116.9316
340.14        117.2971
340.59        117.3529
341.05        117.1705
341.50        116.7747
341.95        116.4235
342.40        116.5082
342.85        117.1052
343.30        118.1115
343.75        119.2664
344.20        120.1135
344.66         120.526
345.11        120.6349
345.56        120.5989
346.01        120.6847
346.46        120.9857
346.91        121.4122
347.36        121.9174
347.81        122.4498
348.26        122.9619
348.72        123.4519
349.17        123.8942
349.62        124.2788
350.07        124.5907
350.52        124.8474
350.97        124.9304
351.42        124.6665
351.87        124.0698
352.32        123.2184
352.77        122.4235
353.22        122.1308
353.67        122.4063
354.13        123.1153
354.58        123.9087
355.03         124.153
355.48        123.6908
355.93        122.7104
356.38        121.6003
356.83        120.9505
357.28        120.8792
357.73        121.1759
358.18        121.5111
358.63        121.3638
359.08        120.6006
359.53        119.4147
359.98        118.0634
360.43        116.9035
360.88        116.0357
361.33        115.3598
361.78         114.743
362.23        113.9884
362.68        113.0606
363.13        112.0464
363.58        111.0854
364.03        110.3699
364.48        109.9207
364.93        109.6472
365.38        109.3849
365.83        108.8864
366.28        108.0927
366.73        107.0864
367.18        105.9991
367.63        105.0335
368.08         104.249
368.53        103.5919
368.98        102.9953
369.43        102.3468
369.88        101.6184
370.33        100.8598
370.78        100.1187
371.23         99.4741
371.68        98.94407
372.13        98.47729
372.58         98.0493
373.03        97.62642
373.48        97.17715
373.93        96.70673
374.38        96.15121
374.83        95.41753
375.28        94.51182
375.72        93.45998
376.17        92.44637
376.62        91.63297
377.07         91.0723
377.52        90.74336
377.97        90.54112
378.42        90.29848
378.87        89.96433
379.32        89.54415
379.77        89.17686
380.22        89.07266
380.67        89.23224
381.11        89.60296
381.56        89.82718
382.01        89.41752
382.46        88.32909
382.91        86.81107
383.36        85.30764
383.81        84.41711
384.26        84.23725
384.71         84.5596
385.15        85.13194
385.60        85.50262
386.05        85.51342
386.50        85.29574
386.95        84.88443
387.40        84.34238
387.85        83.73682
388.29        82.99875
388.74        82.34738
389.19        81.88836
389.64        81.62802
390.09        81.52094
390.54        81.46441
390.98        81.25839
391.43        80.90781
391.88        80.47817
392.33        80.03304
392.78        79.65649
393.23        79.37392
393.67        79.12166
394.12        78.98398
394.57        78.91428
395.02        78.90611
395.47        78.98647
395.91        79.09383
396.36        79.04601
396.81        78.84224
397.26        78.55328
397.71        78.22783
398.15        77.93607
398.60        77.78819
399.05        77.56728
399.50        77.31045
399.95        77.36974
400.39        77.60952
400.84        77.28503
401.29        76.48175
401.74        75.96551
402.18        75.81353
402.63        75.58839
403.08        75.31714
403.53        75.19396
403.97        75.20686
404.42        75.30811
404.87        75.42209
405.32        75.39371
405.76        75.17879
406.21          74.932
406.66        74.70631
407.11        74.40881
407.55        74.18209
408.00        74.39532
408.45        74.92659
408.90        75.13799
409.34        74.90838
409.79        74.49133
410.24        74.05082
410.68        73.77151
411.13        73.71742
411.58        73.79308
412.03        73.89732
412.47         73.8978
412.92         73.7324
413.37        73.47765
413.81        73.22065
414.26        73.15887
414.71        73.29684
415.15        73.59765
415.60        73.93705
416.05        74.18661
416.49        74.29638
416.94        74.29024
417.39        74.22371
417.83        74.16707
418.28        74.15584
418.73        74.17547
419.17        74.21281
419.62        74.25265
420.07        74.27721
420.51        74.26154
420.96        74.27023
421.41        74.30582
421.85        74.33105
422.30        74.50796
422.74        74.65805
423.19        74.40263
423.64        73.81812
424.08        73.51372
424.53        73.55263
424.98        73.63061
425.42        73.77174
425.87        74.14114
426.31        74.62238
426.76        74.95048
427.21        75.05385
427.65        74.81102
428.10        74.32536
428.54        74.22093
428.99        74.37843
429.44        74.34289
429.88        74.18362
430.33        74.93553
430.77        76.10079
431.22        76.31861
431.66        75.59977
432.11        74.68004
432.56        73.98829
433.00        74.19038
433.45        75.25954
433.89        76.06411
434.34         76.0637
434.78        76.59318
435.23        76.41534
435.67        74.77341
436.12        74.61833
436.57        74.59737
437.01        75.41805
437.46        75.69487
437.90        75.38487
438.35        75.21387
438.79        75.35823
439.24        75.50298
439.68        75.63354
440.13        75.97511
440.57        76.46181
441.02        76.34756
441.46         75.7862
441.91        76.31712
442.35        77.45437
442.80        77.15091
443.24        75.73631
443.69        75.68789
444.13        76.88173
444.58        77.62572
445.02        77.28629
445.47        77.42062
445.91         77.8762
446.36        78.22755
446.80        78.43835
447.24        78.61235
447.69        78.74824
448.13        78.81506
448.58        78.83392
449.02        78.78476
449.47        78.68929
449.91        78.55104
450.36        78.41183
450.80        78.25874
451.25        78.15865
451.69        78.14599
452.13        78.23968
452.58        78.40914
453.02        78.60068
453.47        78.73593
453.91        78.77582
454.36        78.74999
454.80        78.64948
455.24        78.39565
455.69        78.00876
456.13        77.65791
456.58        77.46413
457.02        76.91971
457.46        76.59022
457.91        76.98509
458.35         77.8395
458.79        77.92693
459.24        77.25262
459.68        76.30352
460.13        75.41323
460.57        75.12936
461.01        75.65427
461.46        75.51431
461.90         76.1351
462.34        77.47243
462.79        77.15174
463.23         77.4817
463.68        77.51048
464.12        77.21227
464.56         76.5747
465.01        75.51254
465.45        74.44317
465.89        74.39295
466.34        75.06951
466.78        75.62551
467.22        76.00427
467.67        74.49861
468.11        74.66173
468.55        74.71584
468.99        75.47927
469.44        75.63157
469.88        75.14112
470.32        74.76973
470.77         74.6151
471.21        74.52126
471.65        74.50569
472.10        74.63434
472.54        74.80495
472.98        74.85266
473.42        74.73746
473.87        74.53846
474.31        74.27334
474.75        73.99805
475.20        73.78408
475.64        73.68851
476.08         73.6918
476.52        73.60627
476.97        73.39248
477.41        73.26656
477.85        73.23152
478.29        73.05287
478.74        73.13369
479.18        73.63379
479.62        73.45745
480.06        73.51215
480.50        73.41249
480.95        73.41199
481.39        73.26925
481.83        73.15866
482.27        72.84824
482.72        73.37093
483.16        73.29578
483.60        72.86156
484.04        73.30547
484.48        73.54189
484.93        73.63674
485.37        73.45301
485.81        72.73622
486.25        72.23171
486.69        71.56728
487.14         74.8372
487.58        74.79997
488.02        73.89594
488.46         72.4886
488.90        72.52988
489.34        73.75562
489.79        74.57015
490.23        73.74767
490.67        73.11977
491.11        72.67312
491.55        72.54875
491.99        72.70526
492.43        72.60867
492.88        72.26319
493.32        72.13828
493.76        72.25719
494.20        72.35664
494.64        72.41212
495.08        72.53934
495.52        72.67556
495.96        72.64829
496.41        72.48001
496.85        72.35576
497.29        72.21508
497.73        72.32336
498.17        71.78348
498.61        71.77004
499.05        71.94863
499.49        72.13512
499.93        71.76701
500.37        71.91576
500.82        72.32462
501.26        72.31403
501.70        71.94154
502.14        71.89999
502.58        72.19177
503.02        72.31186
503.46         72.2493
503.90        72.28692
504.34        72.39281
504.78         72.3978
505.22        72.28315
505.66         72.0759
506.10        71.87411
506.54        71.82957
506.98        71.86044
507.42        72.16608
507.86        71.82355
508.30        71.68526
508.74        71.85996
509.18        71.87009
509.62        71.81541
510.06        71.78055
510.50        71.77872
510.94        71.76658
511.38        71.75018
511.82        71.75014
512.26        71.76625
512.70        71.79991
513.14        71.83086
513.58        71.82179
514.02        71.76971
514.46        71.68929
514.90        71.61375
515.34        71.59679
515.78        71.64684
516.22        71.73928
516.66        71.84344
517.10         71.9106
517.54        71.92397
517.98        71.90096
518.42        71.84057
518.86        71.74209
519.30        71.61703
519.74        71.47041
520.18        71.34171
520.62        71.29041
521.06        71.33038
521.50        71.45229
521.93        71.61563
522.37        71.72771
522.81        71.77089
523.25        71.75584
523.69        71.72693
524.13         71.7598
524.57        71.86067
525.01        71.99351
525.45        72.09257
525.89         72.0542
526.32        71.85735
526.76        71.57417
527.20        71.26331
527.64        71.01911
528.08         70.8762
528.52        70.80421
528.96        70.81525
529.40        70.92576
529.83         71.1155
530.27        71.38052
530.71        71.62856
531.15        71.72064
531.59        71.62872
532.03        71.38406
532.46         71.0747
532.90        70.89611
533.34         70.8802
533.78        70.93687
534.22        70.98869
534.66        71.00095
535.09        70.89741
535.53        70.56198
535.97        70.09875
536.41        69.84841
536.85        69.85748
537.28        69.96419
537.72        70.12206
538.16        70.31074
538.60        70.49397
539.04        70.67268
539.47        70.81057
539.91        70.89951
540.35        70.92123
540.79        70.87577
541.22         70.7886
541.66        70.72956
542.10        70.70901
542.54        70.71751
542.97        70.71721
543.41        70.68162
543.85        70.59351
544.29        70.46994
544.72        70.33955
545.16        70.28717
545.60        70.31937
546.04        70.42719
546.47        70.55951
546.91        70.66696
547.35        70.73526
547.79        70.65976
548.22        70.51702
548.66        70.69802
549.10        71.14974
549.53        71.14644
549.97        70.75356
550.41        70.48944
550.84        70.45811
551.28        70.51532
551.72        70.58346
552.15        70.55386
552.59        70.69931
553.03        70.03416
553.46         70.5433
553.90        70.24532
554.34        70.32515
554.77        70.33024
555.21        70.48559
555.65        70.39071
556.08        70.66031
556.52          70.673
556.96        70.60101
557.39        70.63975
557.83        70.74379
558.27        70.48457
558.70        69.95839
559.14        69.78137
559.57        69.93678
560.01        70.01476
560.45        70.00959
560.88        70.15311
561.32        70.42133
561.75        70.65548
562.19        70.80424
562.63        70.63641
563.06        70.26108
563.50        70.22244
563.93        70.42403
564.37        70.43713
564.80        70.28165
565.24        70.08958
565.68        69.74368
566.11        70.45195
566.55        69.69263
566.98        69.53304
567.42        69.38237
567.85          69.556
568.29        70.00407
568.72        70.39419
569.16        70.75343
569.60        70.86338
570.03        70.92193
570.47        71.05034
570.90        71.39948
571.34        70.39984
571.77        70.66448
572.21        71.17113
572.64        70.91835
573.08        71.32895
573.51         70.7525
573.95         70.5374
574.38        70.79893
574.82        70.84667
