SpectraSmart Spectrum 2.9.0.0
--------- Device Information -----------
Spectrum Name :  反射率_0
Saving Time :  2024/04/26 22:37:38
Spectro-Module Model Name : SE2030-DUVN
Spectro-Module Serial Number : OS361AC55029948
Wavelength Start : 200
Wavelength End : 1025
Wavelength Unit : Wavelength(nm)
Spectrum Unit : Reflectance(%)
-----------Spectrum Setting ------------
Integration Time : 20ms
Average : 10
Boxcar : 0
Background removal :  enabled
linearity correction :  enabled
SC :  disabled
Intensity correction :  disabled
DWT denoise :  enabled
savitzky-golay :  disabled
FFT :  disabled
Running average :  disabled
Kalman :  disabled
High pass :  disabled
---------------BEGIN--------------------
Wavelength(nm)             Reflectance(%)
200.29               0
200.75        47.54176
201.21        43.88244
201.67        40.94576
202.13        39.08045
202.58        38.07229
203.04        37.96338
203.50        39.27677
203.96         42.8253
204.42        48.64185
204.88        56.21975
205.34        63.12312
205.80        65.62057
206.26        63.11913
206.72         57.1565
207.18        50.65861
207.64        45.73806
208.10        42.16098
208.55        39.17709
209.01        36.18282
209.47        34.21861
209.93        34.41814
210.39        36.41062
210.85        38.89937
211.31        41.74746
211.77        46.08508
212.23        54.54478
212.69        76.16242
213.14         121.155
213.60        133.8479
214.06        112.9334
214.52        94.03571
214.98        82.60326
215.44        74.23748
215.90        65.70282
216.36        57.55195
216.81        51.20658
217.27        47.36779
217.73        46.26746
218.19        47.63161
218.65        49.14122
219.11        49.34939
219.57        48.59045
220.02        49.02275
220.48        53.20164
220.94         61.5808
221.40        75.59693
221.86        93.21846
222.32        98.67285
222.77        83.14408
223.23        59.62534
223.69        40.83666
224.15         32.8977
224.61        32.79848
225.06        36.20953
225.52        40.45345
225.98        42.89491
226.44        43.27074
226.90        42.77543
227.36        41.44067
227.81        39.27179
228.27        36.80367
228.73        33.98851
229.19        31.88617
229.65         31.7725
230.10        33.52707
230.56        36.71797
231.02        39.95737
231.48        40.94116
231.93        39.33414
232.39        36.34795
232.85         33.3488
233.31        32.11752
233.77        32.87294
234.22        34.98987
234.68        37.70706
235.14        39.98753
235.60        41.46801
236.05        42.50706
236.51        43.25773
236.97        43.94873
237.43        44.69254
237.88        45.34616
238.34        45.94569
238.80        46.92643
239.26        48.56744
239.71        51.35881
240.17          55.235
240.63        59.85111
241.08         64.8044
241.54        69.34996
242.00        74.24564
242.46        81.85011
242.91        94.71258
243.37        114.8555
243.83        142.4095
244.28        164.1972
244.74        161.5161
245.20        134.9939
245.66        105.0639
246.11        89.33946
246.57        87.85506
247.03        95.38326
247.48        104.2834
247.94        101.8932
248.40        89.88163
248.85        76.32002
249.31        66.30223
249.77        62.02862
250.22        62.56163
250.68        66.33371
251.14        73.04654
251.59         79.9828
252.05        84.42716
252.51        87.60729
252.96        87.72127
253.42        84.00123
253.88        77.85033
254.33        70.06254
254.79        65.36369
255.25        67.78812
255.70        76.38196
256.16        89.04401
256.62        100.0292
257.07        100.7292
257.53         93.3229
257.99        83.42704
258.44        75.15625
258.90        71.86945
259.35        72.11453
259.81        74.40813
260.27        76.94391
260.72        77.66105
261.18         76.6518
261.63        74.46798
262.09        72.38792
262.55        71.09544
263.00        70.44667
263.46        70.25744
263.91        69.68679
264.37         68.1157
264.83        65.57582
265.28        62.47767
265.74        59.71228
266.19        57.99928
266.65        57.46034
267.11        57.65043
267.56        58.05429
268.02        57.87379
268.47        56.89036
268.93        55.42671
269.38        53.69376
269.84        52.07873
270.30        50.69981
270.75        49.40377
271.21         48.2884
271.66        47.44898
272.12        46.86245
272.57        46.47941
273.03        46.06519
273.48        45.21077
273.94        43.92345
274.39          42.328
274.85        40.76031
275.31        39.53047
275.76        38.68341
276.22         38.1491
276.67        37.76849
277.13        37.42292
277.58        36.99678
278.04        36.54153
278.49        36.02364
278.95        35.51675
279.40        34.97878
279.86         34.4751
280.31         33.8825
280.77        33.15459
281.22          32.275
281.68        31.35203
282.13        30.54173
282.59        30.14389
283.04        30.14672
283.50        30.48207
283.95        30.89506
284.41        30.98938
284.86          30.683
285.32        30.13736
285.77        29.59468
286.22        29.46914
286.68        29.81939
287.13        30.45004
287.59        31.14611
288.04         31.5335
288.50        31.54734
288.95        31.28901
289.41        30.92747
289.86        30.62744
290.32        30.49706
290.77        30.48367
291.22        30.58238
291.68        30.77088
292.13        31.04426
292.59        31.45655
293.04        32.06644
293.50        32.96837
293.95        34.15448
294.40        35.58468
294.86        37.14928
295.31        38.67107
295.77        40.11458
296.22        41.50466
296.68        42.94191
297.13        44.57198
297.58        46.43736
298.04        48.48808
298.49         50.6335
298.95        52.75303
299.40        54.79172
299.85        56.79049
300.31        58.79586
300.76        60.85242
301.21           62.98
301.67        65.16347
302.12        67.34253
302.58        69.53157
303.03        71.67191
303.48        73.80505
303.94        75.94379
304.39        78.02269
304.84        80.07661
305.30        82.13142
305.75        84.18526
306.20        86.34013
306.66         88.6116
307.11        90.91071
307.57        93.16515
308.02        95.14026
308.47        96.82404
308.93        98.28174
309.38        99.61273
309.83         101.108
310.29        102.8277
310.74        104.6846
311.19        106.4772
311.65        107.8427
312.10        108.6845
312.55        109.1231
313.00        109.4372
313.46        110.0586
313.91        111.0579
314.36        112.3334
314.82        113.6432
315.27        114.6133
315.72        115.1176
316.18        115.3065
316.63        115.3391
317.08        115.5163
317.53        115.9301
317.99        116.4832
318.44        117.0842
318.89        117.5537
319.35        117.8367
319.80         117.999
320.25        118.1335
320.70        118.3841
321.16        118.7774
321.61        119.3013
322.06        119.8277
322.51        120.1654
322.97        120.2531
323.42        120.1526
323.87         120.042
324.32        120.2348
324.78        120.7572
325.23        121.6114
325.68        122.4642
326.13        122.7743
326.59         122.425
327.04         121.619
327.49        120.7739
327.94        120.5856
328.39        121.2119
328.85         122.397
329.30        123.8674
329.75        124.8322
330.20        125.0359
330.66        124.6845
331.11        124.1336
331.56        123.8708
332.01        124.0662
332.46        124.5288
332.92        125.0941
333.37        125.6828
333.82        126.1482
334.27        126.5917
334.72        126.9416
335.17        127.0449
335.63         126.898
336.08        126.6109
336.53        126.3998
336.98        126.6866
337.43        127.5624
337.88         128.878
338.34        130.3774
338.79        131.7503
339.24        132.7732
339.69        133.5185
340.14         133.936
340.59        133.9777
341.05        133.7264
341.50        133.2062
341.95        132.6684
342.40        132.5028
342.85        132.8102
343.30        133.5094
343.75        134.4309
344.20        135.2621
344.66        135.8874
345.11        136.3662
345.56        136.7294
346.01        137.0421
346.46        137.3375
346.91        137.5885
347.36        137.7798
347.81        137.9168
348.26        137.9971
348.72        138.0116
349.17        138.0227
349.62        138.1643
350.07        138.4419
350.52        138.8385
350.97        139.1114
351.42        138.8745
351.87        138.0883
352.32        136.8912
352.77        135.6938
353.22        135.0929
353.67        135.1901
354.13        135.7991
354.58        136.5173
355.03        136.6232
355.48        135.9397
355.93        134.6972
356.38        133.3301
356.83        132.4874
357.28        132.2964
357.73        132.5164
358.18        132.7868
358.63        132.5414
359.08        131.6324
359.53          130.27
359.98         128.714
360.43        127.3247
360.88        126.2029
361.33         125.236
361.78        124.3133
362.23        123.2782
362.68        122.1035
363.13        120.8751
363.58        119.6815
364.03        118.6286
364.48        117.7292
364.93        116.9257
365.38        116.1477
365.83        115.3015
366.28        114.3652
366.73        113.3766
367.18        112.3734
367.63         111.404
368.08        110.4905
368.53        109.6281
368.98        108.8107
369.43        108.0272
369.88          107.27
370.33        106.5311
370.78        105.8301
371.23        105.2059
371.68        104.6528
372.13        104.1431
372.58        103.6004
373.03        102.9053
373.48          102.03
373.93        101.0103
374.38        99.92267
374.83        98.90078
375.28        97.99287
375.72         97.1524
376.17        96.40248
376.62        95.65054
377.07        94.89177
377.52        94.18289
377.97        93.53809
378.42        92.99211
378.87         92.5482
379.32        92.13687
379.77        91.82121
380.22        91.69884
380.67        91.74152
381.11        91.95178
381.56        91.99151
382.01          91.408
382.46        90.18324
382.91        88.54575
383.36        86.98114
383.81        86.15295
384.26        86.14993
384.71        86.73642
385.15        87.55595
385.60        87.97981
386.05        87.81273
386.50        87.24661
386.95        86.42874
387.40        85.59994
387.85        84.87463
388.29        84.12975
388.74        83.52799
389.19        83.08535
389.64        82.78797
390.09        82.63227
390.54        82.52134
390.98        82.25838
391.43          81.846
391.88        81.33267
392.33        80.82135
392.78        80.40136
393.23        80.08707
393.67        79.97067
394.12        80.03109
394.57        79.68974
395.02        79.10118
395.47        79.17946
395.91        79.78366
396.36        79.82175
396.81         79.2543
397.26        78.69598
397.71        78.23619
398.15         77.7878
398.60        77.48109
399.05        77.11488
399.50        76.77144
399.95        76.90586
400.39        77.36355
400.84         77.2831
401.29        76.64886
401.74        76.15983
402.18        75.86403
402.63        75.31074
403.08        74.65763
403.53        74.33684
403.97        74.38326
404.42        74.67211
404.87         75.0283
405.32        75.13362
405.76        74.90139
406.21        74.55338
406.66        74.18113
407.11        73.76266
407.55        73.48246
408.00        73.61449
408.45        74.05421
408.90        74.43901
409.34        74.51375
409.79        73.93362
410.24        72.99206
410.68        72.55495
411.13        72.71721
411.58        73.02235
412.03         73.2547
412.47        73.25192
412.92        72.91966
413.37        72.35735
413.81        71.78466
414.26        71.58427
414.71         71.7949
415.15        72.33102
415.60        72.96067
416.05        73.35455
416.49        73.40399
416.94        73.19822
417.39        72.89539
417.83        72.72467
418.28        72.75938
418.73        72.92401
419.17        73.13499
419.62        73.26794
420.07        73.26997
420.51        73.16231
420.96        73.04038
421.41        72.93632
421.85        72.84433
422.30        72.95367
422.74         73.0852
423.19        72.81762
423.64        72.22692
424.08         71.9888
424.53        72.19162
424.98        72.38961
425.42        72.56593
425.87        73.23077
426.31        74.09003
426.76        73.89203
427.21        72.84035
427.65        72.48006
428.10        72.83576
428.54        72.92609
428.99        72.69594
429.44        72.55173
429.88        72.59705
430.33         73.3015
430.77        74.26661
431.22        74.60084
431.66        74.22711
432.11         73.4891
432.56        72.73299
433.00         72.6934
433.45        73.55815
433.89        74.43178
434.34        74.47392
434.78        75.77599
435.23        74.84897
435.67        71.97095
436.12        72.90782
436.57        72.91778
437.01        73.62729
437.46        73.89312
437.90         73.7345
438.35        73.03627
438.79        73.27273
439.24         73.2702
439.68        73.40945
440.13        73.87693
440.57        74.53551
441.02        74.53031
441.46        73.99554
441.91        74.36897
442.35        75.30463
442.80        75.29062
443.24        74.47776
443.69         74.4161
444.13        75.07127
444.58        75.46051
445.02         75.4899
445.47        75.46474
445.91          75.472
446.36        75.67567
446.80        76.07129
447.24        76.50111
447.69         76.8668
448.13        77.07471
448.58        77.10895
449.02        76.97858
449.47        76.76689
449.91        76.57286
450.36        76.46124
450.80        76.38567
451.25         76.3756
451.69        76.40699
452.13        76.48589
452.58        76.61552
453.02        76.74818
453.47        76.81025
453.91        76.76665
454.36        76.63412
454.80        76.44303
455.24        76.17075
455.69        75.84132
456.13        75.66013
456.58        75.63401
457.02        75.09365
457.46        74.34666
457.91        74.67253
458.35        75.71542
458.79        75.88998
459.24        75.20353
459.68        74.33514
460.13        73.55663
460.57        73.34194
461.01        73.90635
461.46        73.36957
461.90        73.86169
462.34        75.11047
462.79        74.99261
463.23        74.59569
463.68        75.00415
464.12        74.65453
464.56        74.08779
465.01        73.17801
465.45        72.19044
465.89        71.89092
466.34        72.19091
466.78        72.51962
467.22         72.7211
467.67        72.62024
468.11        72.33041
468.55        72.35599
468.99        72.66724
469.44        72.67998
469.88        72.39664
470.32         72.2067
470.77        72.13482
471.21        72.02786
471.65        71.87268
472.10        71.71581
472.54        71.59603
472.98        71.50344
473.42        71.43613
473.87        71.61485
474.31        71.82162
474.75        71.35039
475.20        70.51998
475.64        70.07521
476.08        71.18959
476.52        71.26424
476.97        70.51509
477.41        70.66857
477.85        71.12186
478.29        70.03571
478.74        70.33223
479.18        71.00932
479.62        70.60155
480.06        70.69628
480.50        70.58705
480.95        70.48868
481.39        70.40742
481.83          70.273
482.27        69.94723
482.72        70.60264
483.16        70.35954
483.60        70.16327
484.04        70.39164
484.48        70.52035
484.93        70.53398
485.37        70.13214
485.81         69.8653
486.25        69.02892
486.69        68.59495
487.14        70.99911
487.58        70.94793
488.02        70.28199
488.46        69.15986
488.90        69.29892
489.34        70.52553
489.79        71.77122
490.23        70.76283
490.67        69.94073
491.11        69.11324
491.55        69.03305
491.99        69.58339
492.43        69.61386
492.88        69.10023
493.32        68.87234
493.76        68.99654
494.20         69.1055
494.64        69.18417
495.08        69.35786
495.52          69.535
495.96        69.54807
496.41        69.38144
496.85        69.11906
497.29        68.79024
497.73        68.81794
498.17         68.3373
498.61        68.59345
499.05        68.84312
499.49        68.96268
499.93        68.58847
500.37        68.70498
500.82        69.24508
501.26        68.95505
501.70        68.79282
502.14        69.09628
502.58         68.8775
503.02        69.00096
503.46         69.1002
503.90        69.02782
504.34        69.20648
504.78        69.15244
505.22        68.99804
505.66         68.7952
506.10        68.62994
506.54        68.48499
506.98        68.34724
507.42        68.76019
507.86        68.67207
508.30        68.79394
508.74        68.80122
509.18         68.7491
509.62        68.64951
510.06        68.54227
510.50        68.45495
510.94        68.36652
511.38        68.30089
511.82        68.29617
512.26         68.3557
512.70        68.47137
513.14        68.60443
513.58         68.6888
514.02        68.70564
514.46        68.66714
514.90         68.6048
515.34        68.57388
515.78        68.58675
516.22         68.6245
516.66        68.65749
517.10        68.63866
517.54          68.561
517.98        68.44942
518.42          68.332
518.86        68.25078
519.30        68.21845
519.74        68.21787
520.18        68.24576
520.62        68.29571
521.06        68.36152
521.50        68.45045
521.93        68.53657
522.37        68.55633
522.81        68.50913
523.25        68.40318
523.69        68.29813
524.13        68.29068
524.57        68.39223
525.01        68.56713
525.45        68.73447
525.89        68.76192
526.32        68.61654
526.76        68.36805
527.20        68.08481
527.64        67.87962
528.08        67.78709
528.52        67.76843
528.96        67.81001
529.40        67.89043
529.83        67.98746
530.27        68.11465
530.71        68.22217
531.15        68.23634
531.59        68.14725
532.03        67.97095
532.46        67.76141
532.90        67.65538
533.34        67.66928
533.78        67.72955
534.22        67.78358
534.66        67.83228
535.09         67.8063
535.53        67.57542
535.97        67.21292
536.41        67.00809
536.85        66.99715
537.28        67.03992
537.72        67.10851
538.16        67.20988
538.60        67.32133
539.04        67.43851
539.47        67.53028
539.91         67.5922
540.35        67.60596
540.79        67.57456
541.22         67.5105
541.66        67.45876
542.10        67.42526
542.54         67.4066
542.97        67.38297
543.41        67.35182
543.85        67.30066
544.29         67.2432
544.72        67.18446
545.16        67.15102
545.60        67.13053
546.04        67.17942
546.47        67.28222
546.91        67.26372
547.35        67.17999
547.79        67.35855
548.22        67.70916
548.66        67.80703
549.10        67.70005
549.53        67.56281
549.97        67.46307
550.41        67.28274
550.84        67.12045
551.28        67.15746
551.72        67.29481
552.15        67.40702
552.59        67.54874
553.03        66.81428
553.46        67.27122
553.90        67.06026
554.34         67.0827
554.77        67.08022
555.21        67.14751
555.65        67.27107
556.08        67.40546
556.52        67.52677
556.96        67.58359
557.39        67.64788
557.83        67.67984
558.27        67.39742
558.70        66.89503
559.14         66.6686
559.57        66.71136
560.01        66.67495
560.45        66.56406
560.88        66.64574
561.32        66.88821
561.75        67.00706
562.19         66.9959
562.63        66.89336
563.06        66.75002
563.50          66.745
563.93        66.80916
564.37        66.82251
564.80        66.81176
565.24        66.74645
565.68        66.48392
566.11        67.19945
566.55        66.48041
566.98        66.27267
567.42          66.035
567.85        66.15734
568.29        66.58185
568.72        66.85989
569.16        67.01134
569.60        67.05457
570.03        67.22049
570.47        67.26093
570.90         67.2751
571.34        66.93633
571.77        67.17492
572.21        67.38364
572.64        67.14752
573.08        67.54789
573.51        67.00358
573.95        66.86617
574.38        66.94417
574.82        67.14322
