SpectraSmart Spectrum 2.9.0.0
--------- Device Information -----------
Spectrum Name :  反射率_0
Saving Time :  2024/04/26 22:42:33
Spectro-Module Model Name : SE2030-DUVN
Spectro-Module Serial Number : OS361AC55029948
Wavelength Start : 200
Wavelength End : 1025
Wavelength Unit : Wavelength(nm)
Spectrum Unit : Reflectance(%)
-----------Spectrum Setting ------------
Integration Time : 20ms
Average : 10
Boxcar : 0
Background removal :  enabled
linearity correction :  enabled
SC :  disabled
Intensity correction :  disabled
DWT denoise :  enabled
savitzky-golay :  disabled
FFT :  disabled
Running average :  disabled
Kalman :  disabled
High pass :  disabled
---------------BEGIN--------------------
Wavelength(nm)             Reflectance(%)
200.29               0
200.75        42.72356
201.21        45.37327
201.67        48.05943
202.13        49.44821
202.58         49.4295
203.04        48.71139
203.50        47.97152
203.96        48.77664
204.42        52.08809
204.88        57.44481
205.34         63.1506
205.80        66.42815
206.26        66.34088
206.72        63.53196
207.18        60.21689
207.64        58.26155
208.10        57.79206
208.55        59.18111
209.01        60.39635
209.47        56.89753
209.93         49.5312
210.39        42.63914
210.85          39.247
211.31         40.6936
211.77        47.97861
212.23        66.84286
212.69        115.4364
213.14        197.6143
213.60        194.7696
214.06         136.193
214.52        97.09417
214.98        81.18347
215.44        76.41409
215.90        75.60164
216.36        75.97021
216.81        74.01142
217.27        68.57148
217.73        60.65331
218.19        50.63989
218.65         44.3091
219.11        45.99863
219.57        51.17246
220.02        56.95037
220.48        64.08154
220.94          73.669
221.40        87.90456
221.86        105.9536
222.32        114.7501
222.77        104.7706
223.23        86.05643
223.69        68.74309
224.15        57.89999
224.61        52.21612
225.06        49.14065
225.52        47.87599
225.98        47.44334
226.44         47.3979
226.90        47.88747
227.36        48.27136
227.81        47.47346
228.27        45.56364
228.73        42.88079
229.19        40.35963
229.65        39.04659
230.10        38.93428
230.56        39.68241
231.02        40.52227
231.48        40.28284
231.93         38.7931
232.39        36.76025
232.85         34.9303
233.31        34.28329
233.77        34.89759
234.22        36.46875
234.68        38.34509
235.14        39.64193
235.60        40.11937
236.05        40.03876
236.51        39.88752
236.97        40.61151
237.43          42.533
237.88        45.36406
238.34        48.56042
238.80        51.59258
239.26        54.45368
239.71        57.80594
240.17        61.68464
240.63        66.28208
241.08        71.56264
241.54          76.541
242.00        82.08871
242.46        90.90059
242.91         105.823
243.37        129.3026
243.83        161.6605
244.28        187.6648
244.74        185.2837
245.20        155.1154
245.66        119.5709
246.11        97.78421
246.57         90.1684
247.03         91.4322
247.48        95.64299
247.94        93.43924
248.40        85.49026
248.85        76.93526
249.31        71.30169
249.77         70.2124
250.22        73.09825
250.68        78.94492
251.14        86.69067
251.59        91.65064
252.05        90.84966
252.51        86.99834
252.96        81.03667
253.42        74.24821
253.88          67.625
254.33        61.21465
254.79        57.84782
255.25        59.69587
255.70        65.92119
256.16        75.06443
256.62        83.31124
257.07        84.78697
257.53        80.69574
257.99        74.59023
258.44        68.99252
258.90         66.2183
259.35        65.29501
259.81        65.47932
260.27        65.80466
260.72        65.27855
261.18        64.08002
261.63        62.37736
262.09        60.88482
262.55        59.80234
263.00        59.00241
263.46        58.47395
263.91        57.74427
264.37        56.57537
264.83        54.96232
265.28        53.06157
265.74        51.37048
266.19        50.17924
266.65         49.5672
267.11        49.28954
267.56        49.09281
268.02         48.5886
268.47        47.68392
268.93        46.56205
269.38        45.31474
269.84        44.13679
270.30        43.08193
270.75        42.06766
271.21        41.19674
271.66        40.56868
272.12        40.17363
272.57        39.95732
273.03        39.70491
273.48        39.05753
273.94        38.01851
274.39        36.68863
274.85         35.3895
275.31        34.43104
275.76        33.84368
276.22        33.54332
276.67        33.33232
277.13        33.01752
277.58        32.50093
278.04        31.88558
278.49        31.20424
278.95        30.61513
279.40        30.10575
279.86        29.69468
280.31        29.28244
280.77        28.83495
281.22        28.31701
281.68         27.8154
282.13        27.37643
282.59        27.14246
283.04        27.08963
283.50        27.17736
283.95        27.30779
284.41         27.3387
284.86        27.23038
285.32        27.06027
285.77        26.85954
286.22        26.73302
286.68        26.70838
287.13        26.71554
287.59        26.77682
288.04        26.88344
288.50        27.03725
288.95         27.2076
289.41         27.3472
289.86        27.31698
290.32        27.14818
290.77        26.88691
291.22        26.65839
291.68        26.63277
292.13        26.84991
292.59        27.29036
293.04        27.91041
293.50        28.65236
293.95        29.47799
294.40        30.40612
294.86        31.43478
295.31        32.54722
295.77        33.74353
296.22        35.00242
296.68        36.31764
297.13        37.67428
297.58         39.0781
298.04        40.52896
298.49        42.04306
298.95        43.66542
299.40        45.37643
299.85        47.15462
300.31        48.94117
300.76        50.62589
301.21        52.20051
301.67        53.72136
302.12        55.21378
302.58        56.80383
303.03        58.47244
303.48         60.2013
303.94        61.98773
304.39        63.76466
304.84        65.53458
305.30        67.32186
305.75        69.05391
306.20        70.70601
306.66        72.28755
307.11        73.77151
307.57        75.20695
308.02        76.57073
308.47        77.88983
308.93        79.16792
309.38        80.40984
309.83        81.73106
310.29         83.1473
310.74        84.62593
311.19        86.03448
311.65        87.12994
312.10        87.84409
312.55        88.23914
313.00        88.53157
313.46        89.06471
313.91        89.88984
314.36         90.9384
314.82        91.98528
315.27        92.67574
315.72        92.91233
316.18        92.84058
316.63        92.66637
317.08        92.75349
317.53         93.1916
317.99        93.85375
318.44        94.58579
318.89        95.10741
319.35        95.33518
319.80         95.3716
320.25        95.32123
320.70        95.34821
321.16         95.5075
321.61        95.77898
322.06        96.11475
322.51        96.45172
322.97        96.74883
323.42        97.02666
323.87        97.33575
324.32        97.77498
324.78        98.31797
325.23        98.99443
325.68        99.58723
326.13        99.76145
326.59        99.46004
327.04        98.82003
327.49        98.15311
327.94        97.97985
328.39        98.42207
328.85        99.30134
329.30        100.4253
329.75        101.1988
330.20        101.4238
330.66         101.237
331.11        100.9087
331.56        100.8083
332.01        101.0627
332.46        101.5392
332.92        102.0624
333.37         102.497
333.82        102.7266
334.27        102.8553
334.72        102.9576
335.17        103.1303
335.63        103.4038
336.08        103.7852
336.53        104.2723
336.98         104.913
337.43         105.691
337.88        106.5656
338.34        107.4289
338.79        108.2119
339.24        108.8206
339.69         109.282
340.14        109.5708
340.59        109.6643
341.05        109.6261
341.50        109.4818
341.95        109.3978
342.40        109.6246
342.85        110.2082
343.30        111.0591
343.75        112.0342
344.20        112.8828
344.66        113.5084
345.11        113.9694
345.56        114.2469
346.01        114.3288
346.46        114.2639
346.91        114.0778
347.36         113.913
347.81         114.005
348.26         114.386
348.72        114.9679
349.17        115.6237
349.62        116.1776
350.07        116.5537
350.52        116.8148
350.97        116.8715
351.42        116.5924
351.87        116.0066
352.32        115.1717
352.77        114.3753
353.22        114.0383
353.67        114.2294
354.13        114.8294
354.58        115.5419
355.03        115.8192
355.48        115.5117
355.93        114.7675
356.38        113.8957
356.83        113.3698
357.28         113.282
357.73        113.4623
358.18        113.6278
358.63         113.335
359.08        112.4896
359.53        111.2737
359.98        109.9494
360.43        108.8809
360.88        108.1593
361.33        107.6712
361.78        107.2695
362.23        106.7289
362.68        105.9932
363.13        105.1489
363.58         104.292
364.03        103.5561
364.48        102.9608
364.93        102.4327
365.38        101.9011
365.83        101.2709
366.28        100.5227
366.73        99.71189
367.18         98.8618
367.63        97.99752
368.08        97.14259
368.53        96.29216
368.98        95.50677
369.43        94.87862
369.88        94.41676
370.33         94.0974
370.78         93.8145
371.23        93.39336
371.68        92.78848
372.13        92.03545
372.58        91.24982
373.03        90.62167
373.48         90.1867
373.93        89.87867
374.38        89.56504
374.83        89.04253
375.28        88.27107
375.72        87.31085
376.17        86.34577
376.62        85.53876
377.07        84.94942
377.52        84.55211
377.97        84.25507
378.42        83.92224
378.87        83.51703
379.32        83.04672
379.77        82.65709
380.22        82.56098
380.67        82.75917
381.11        83.20103
381.56        83.51662
382.01        83.18645
382.46        82.15076
382.91        80.65284
383.36        79.16047
383.81        78.31096
384.26        78.20712
384.71        78.63252
385.15        79.28273
385.60        79.62436
386.05        79.48651
386.50        79.02815
386.95        78.37758
387.40        77.73763
387.85         77.1974
388.29        76.64897
388.74        76.19569
389.19        75.79232
389.64        75.42981
390.09        75.12521
390.54        74.87769
390.98        74.65416
391.43        74.47819
391.88        74.33081
392.33        74.20006
392.78        74.02741
393.23        73.79855
393.67        73.60891
394.12        73.51204
394.57         73.1218
395.02        72.69923
395.47        72.61556
395.91        72.85047
396.36        72.78635
396.81        72.42247
397.26        72.12471
397.71        71.88939
398.15        71.62043
398.60        71.42101
399.05        71.01996
399.50        70.58475
399.95        70.88088
400.39        71.69084
400.84        71.69053
401.29        70.88136
401.74        70.39816
402.18        70.30185
402.63        69.87753
403.08        69.25857
403.53         68.9676
403.97        69.04247
404.42         69.3456
404.87        69.68405
405.32        69.74155
405.76        69.44968
406.21        68.95345
406.66        68.43011
407.11          68.203
407.55        68.37006
408.00        68.66975
408.45         68.9713
408.90        69.44322
409.34        69.81112
409.79        69.35251
410.24        68.33913
410.68        67.81597
411.13        67.88567
411.58        68.01768
412.03        68.06416
412.47         68.0064
412.92        67.77837
413.37        67.44276
413.81         67.1153
414.26        67.01711
414.71        67.15968
415.15        67.49978
415.60        67.90379
416.05        68.21236
416.49         68.3645
416.94        68.39355
417.39        68.35405
417.83        68.32082
418.28         68.3254
418.73        68.33625
419.17        68.35305
419.62        68.38333
420.07        68.41814
420.51        68.44534
420.96        68.47495
421.41        68.44942
421.85        68.34185
422.30        68.27248
422.74        68.19243
423.19        68.05496
423.64         67.8842
424.08        67.87691
424.53        68.02674
424.98        68.21594
425.42        68.44144
425.87         68.7465
426.31        69.04552
426.76        69.15148
427.21        69.04195
427.65        68.72317
428.10         68.3391
428.54        68.23633
428.99        68.49082
429.44        68.75516
429.88         69.0226
430.33         69.6283
430.77        70.28958
431.22        70.61366
431.66        70.53848
432.11        69.97344
432.56        69.19457
433.00        69.17885
433.45         70.0531
433.89        70.44503
434.34        70.41158
434.78        71.30765
435.23        71.15736
435.67        69.25807
436.12        70.20486
436.57        70.02595
437.01        70.11996
437.46         70.1758
437.90        70.28678
438.35        69.79218
438.79        70.22013
439.24        70.32853
439.68        70.52786
440.13        70.86057
440.57        71.31123
441.02        71.50086
441.46        71.43522
441.91        71.89854
442.35        72.58871
442.80        72.41891
443.24        71.59957
443.69        71.68089
444.13        72.56897
444.58        72.97993
445.02         72.8643
445.47        72.94427
445.91        73.25434
446.36        73.55157
446.80        73.81501
447.24        74.09708
447.69        74.35876
448.13         74.5191
448.58        74.58424
449.02        74.55843
449.47        74.48879
449.91        74.41794
450.36        74.39088
450.80        74.37139
451.25        74.40452
451.69        74.49785
452.13        74.65904
452.58          74.871
453.02        75.06921
453.47        75.15862
453.91        75.10929
454.36        74.95493
454.80        74.72908
455.24        74.46143
455.69        74.18822
456.13        73.95538
456.58        73.81607
457.02        73.49321
457.46        73.13331
457.91        73.29392
458.35        73.72353
458.79        73.60374
459.24        72.96813
459.68        72.13558
460.13        71.38184
460.57         71.1498
461.01        71.60132
461.46        71.63275
461.90        72.06685
462.34        73.37457
462.79         72.9316
463.23        73.12791
463.68        73.04604
464.12         72.6949
464.56        72.08968
465.01        71.26744
465.45        70.44241
465.89        70.28768
466.34        70.68101
466.78        70.94162
467.22        70.97261
467.67        70.83953
468.11        70.67402
468.55        70.81426
468.99        71.17896
469.44        71.20427
469.88        70.87673
470.32        70.55633
470.77         70.3399
471.21        70.20572
471.65        70.16881
472.10        70.24257
472.54        70.35073
472.98        70.34003
473.42        70.17014
473.87        70.02586
474.31        69.87282
474.75        69.44054
475.20        68.91063
475.64        68.89544
476.08        69.32189
476.52        69.42103
476.97        69.13026
477.41         69.0048
477.85        69.18822
478.29        68.72585
478.74        69.31731
479.18        69.39333
479.62        69.42728
480.06        69.41264
480.50        69.31886
480.95        69.25083
481.39        69.25036
481.83        68.92793
482.27         68.7005
482.72        69.38937
483.16        68.96528
483.60        68.95905
484.04        68.90623
484.48        69.17105
484.93        69.50401
485.37        68.85307
485.81        68.34527
486.25        67.73822
486.69        66.91705
487.14        69.13197
487.58        69.76855
488.02        69.19238
488.46        68.06377
488.90        68.63369
489.34        69.48489
489.79        70.28298
490.23        69.68845
490.67        69.20372
491.11        68.82915
491.55        68.70931
491.99        68.83289
492.43        68.71928
492.88        68.36356
493.32        68.34847
493.76        68.34244
494.20        68.47276
494.64        68.61261
495.08        68.85935
495.52        69.09911
495.96        69.10791
496.41        68.91241
496.85        68.65749
497.29        68.36147
497.73         68.5438
498.17        68.28433
498.61        68.22887
499.05        68.12486
499.49        68.21789
499.93        68.25789
500.37        68.47652
500.82        68.74524
501.26        68.69308
501.70        68.72474
502.14        68.58259
502.58        68.48047
503.02        68.48355
503.46        68.61564
503.90        68.88272
504.34        69.16149
504.78        69.19283
505.22        68.93689
505.66        68.61617
506.10        68.36948
506.54        68.14086
506.98         67.9356
507.42        68.51983
507.86         68.4858
508.30        68.69619
508.74        68.79107
509.18        68.78307
509.62        68.71608
510.06        68.64439
510.50        68.60095
510.94        68.55013
511.38        68.49744
511.82        68.45848
512.26        68.43614
512.70        68.43626
513.14        68.45236
513.58        68.46738
514.02        68.47656
514.46        68.48042
514.90        68.48682
515.34         68.5104
515.78        68.55035
516.22         68.5976
516.66        68.63432
517.10        68.63335
517.54        68.59175
517.98        68.52396
518.42        68.44695
518.86        68.38799
519.30        68.35611
519.74         68.3404
520.18        68.34701
520.62        68.38257
521.06        68.44595
521.50        68.54305
521.93        68.64245
522.37        68.67075
522.81         68.6255
523.25        68.51736
523.69        68.41465
524.13        68.42827
524.57         68.5685
525.01        68.78983
525.45        68.99679
525.89        69.03383
526.32        68.86447
526.76        68.57277
527.20        68.23261
527.64         67.9652
528.08        67.81307
528.52        67.73425
528.96        67.73925
529.40        67.84375
529.83        68.02558
530.27        68.28445
530.71         68.5211
531.15        68.58163
531.59        68.43986
532.03        68.13739
532.46        67.77898
532.90        67.58376
533.34        67.58955
533.78        67.69701
534.22        67.82292
534.66        67.91975
535.09        67.90516
535.53        67.66877
535.97        67.29313
536.41        67.08054
536.85        67.07137
537.28        67.11316
537.72        67.18641
538.16        67.31409
538.60        67.47117
539.04        67.65275
539.47        67.79688
539.91         67.8417
540.35        67.77013
540.79        67.62547
541.22        67.45819
541.66        67.35882
542.10        67.34664
542.54        67.40237
542.97        67.48567
543.41        67.55779
543.85        67.59127
544.29        67.60812
544.72        67.59351
545.16        67.56259
545.60        67.50902
546.04        67.44181
546.47        67.39004
546.91        67.38994
547.35        67.45011
547.79        67.57262
548.22        67.71485
548.66        67.79176
549.10        67.85083
549.53        67.85275
549.97        67.82265
550.41         67.6702
550.84        67.46491
551.28        67.43138
551.72         67.5299
552.15        67.53963
552.59         67.4902
553.03        67.23911
553.46        67.51888
553.90        67.38519
554.34        67.47286
554.77        67.50014
555.21        67.61999
555.65        67.56292
556.08        67.73386
556.52        67.74884
556.96        67.70462
557.39          67.738
557.83         67.7983
558.27        67.50049
558.70        66.96254
559.14        66.78561
559.57         66.9585
560.01        67.11623
560.45        67.19463
560.88        67.28402
561.32        67.38757
561.75        67.46069
562.19        67.52275
562.63        67.45065
563.06         67.2979
563.50        67.38003
563.93         67.5935
564.37        67.56392
564.80        67.52943
565.24        67.32588
565.68        66.92108
566.11          67.549
566.55        66.80134
566.98        66.63309
567.42        66.47476
567.85        66.63127
568.29        67.05534
568.72        67.42799
569.16        67.74494
569.60        67.83151
570.03        67.90057
570.47        67.88763
570.90        67.95378
571.34        67.33222
571.77        67.59119
572.21         67.8989
572.64        67.71416
573.08        67.84451
573.51        67.68666
573.95        67.41462
574.38        67.14792
574.82        67.73466
