SpectraSmart Spectrum 2.9.0.0
--------- Device Information -----------
Spectrum Name :  反射率_0
Saving Time :  2024/04/26 22:38:14
Spectro-Module Model Name : SE2030-DUVN
Spectro-Module Serial Number : OS361AC55029948
Wavelength Start : 200
Wavelength End : 1025
Wavelength Unit : Wavelength(nm)
Spectrum Unit : Reflectance(%)
-----------Spectrum Setting ------------
Integration Time : 20ms
Average : 10
Boxcar : 0
Background removal :  enabled
linearity correction :  enabled
SC :  disabled
Intensity correction :  disabled
DWT denoise :  enabled
savitzky-golay :  disabled
FFT :  disabled
Running average :  disabled
Kalman :  disabled
High pass :  disabled
---------------BEGIN--------------------
Wavelength(nm)             Reflectance(%)
200.29               0
200.75        65.74649
201.21        53.56688
201.67        43.05084
202.13        37.72523
202.58        37.43736
203.04        41.46861
203.50        49.26258
203.96        57.48501
204.42        63.24656
204.88        66.77221
205.34         68.3425
205.80        69.65456
206.26        71.14046
206.72        71.26167
207.18        70.69585
207.64        70.46018
208.10        70.73666
208.55        72.54361
209.01        74.21534
209.47        71.69228
209.93        65.50639
210.39        59.34718
210.85        56.04877
211.31        56.93305
211.77        62.58931
212.23        77.18896
212.69        114.1639
213.14        173.8654
213.60        165.5429
214.06        119.5398
214.52        89.67298
214.98        76.17488
215.44        70.09163
215.90        66.26682
216.36        64.44262
216.81        65.18923
217.27        69.00718
217.73        77.83399
218.19        90.05634
218.65        93.86967
219.11        85.56279
219.57        72.97613
220.02        64.26945
220.48         63.5955
220.94        69.81091
221.40        83.08847
221.86        101.8426
222.32        110.7277
222.77        99.17094
223.23        78.97311
223.69        61.11841
224.15        50.90108
224.61        46.58112
225.06        45.01923
225.52        44.96974
225.98        45.14509
226.44        45.17023
226.90        45.44937
227.36        45.57717
227.81         44.8294
228.27        43.33638
228.73        41.23648
229.19        39.40143
229.65        38.85576
230.10         39.5771
230.56        41.26977
231.02        42.96616
231.48        43.13268
231.93        41.57933
232.39        39.18247
232.85        37.01027
233.31        36.48258
233.77        37.69257
234.22         40.1187
234.68        42.89102
235.14        44.76124
235.60        45.35537
236.05        45.07996
236.51        44.31411
236.97        43.86636
237.43        44.14801
237.88        44.95087
238.34        46.23905
238.80        48.26761
239.26        51.24129
239.71        55.82132
240.17        61.76165
240.63        67.93107
241.08        73.38548
241.54        77.27702
242.00        80.68564
242.46        86.95634
242.91        99.09581
243.37        118.6622
243.83        147.0225
244.28        174.0237
244.74        181.4473
245.20        167.2281
245.66         144.799
246.11        127.4867
246.57        116.8891
247.03        109.1682
247.48        102.4635
247.94          95.533
248.40        89.63315
248.85        85.82884
249.31        83.60491
249.77        81.14661
250.22        77.69294
250.68         72.6357
251.14         66.9493
251.59        64.89162
252.05        68.83237
252.51        76.93733
252.96         84.1944
253.42        86.72298
253.88        85.01057
254.33        80.52525
254.79        77.44951
255.25         79.0909
255.70        84.87862
256.16        93.28635
256.62        99.84614
257.07        98.26682
257.53        90.81192
257.99        81.78603
258.44        74.45042
258.90        71.56197
259.35        71.66573
259.81        73.56958
260.27        75.44402
260.72        75.18996
261.18        73.09634
261.63        69.89605
262.09         67.0638
262.55        65.52248
263.00        65.08363
263.46        65.36364
263.91        65.44616
264.37        64.58069
264.83        62.70613
265.28        60.23059
265.74        57.91256
266.19        56.30964
266.65        55.56708
267.11         55.3302
267.56        55.25355
268.02        54.82616
268.47         53.9025
268.93        52.69392
269.38        51.34579
269.84        50.13323
270.30        49.10961
270.75          48.158
271.21        47.26122
271.66         46.3365
272.12        45.36777
272.57        44.37924
273.03        43.36409
273.48        42.28878
273.94        41.22674
274.39        40.15899
274.85        39.22095
275.31        38.44709
275.76        37.81118
276.22        37.33259
276.67        36.89578
277.13        36.43948
277.58        35.88562
278.04        35.26617
278.49        34.59414
278.95        34.01975
279.40         33.5071
279.86        33.09412
280.31        32.61492
280.77        31.94522
281.22        31.06206
281.68        30.11469
282.13         29.2627
282.59        28.80759
283.04        28.74722
283.50         28.9939
283.95         29.3656
284.41        29.58076
284.86        29.55619
285.32        29.40762
285.77        29.21548
286.22        29.16561
286.68        29.29412
287.13        29.48311
287.59        29.71125
288.04        29.90403
288.50        30.05464
288.95        30.16978
289.41        30.22466
289.86        30.10232
290.32        29.85671
290.77        29.52772
291.22        29.28416
291.68        29.35885
292.13        29.79358
292.59        30.55386
293.04        31.52345
293.50        32.52556
293.95        33.49956
294.40        34.50434
294.86        35.61351
295.31        36.93206
295.77        38.48519
296.22        40.19639
296.68         42.0111
297.13        43.83804
297.58        45.65776
298.04        47.50168
298.49        49.37009
298.95         51.2849
299.40        53.23233
299.85        55.19419
300.31        57.18622
300.76        59.21124
301.21        61.27583
301.67        63.40165
302.12        65.51024
302.58        67.57623
303.03        69.55104
303.48          71.486
303.94        73.47178
304.39        75.56735
304.84        77.81028
305.30        80.16944
305.75        82.53207
306.20        84.82799
306.66         87.0379
307.11        89.13793
307.57        91.13358
308.02        92.91181
308.47        94.50253
308.93         95.9386
309.38        97.31132
309.83        98.89578
310.29        100.7407
310.74        102.7681
311.19        104.7546
311.65        106.2959
312.10        107.2777
312.55        107.8156
313.00        108.2029
313.46        108.9038
313.91        109.9966
314.36        111.3727
314.82        112.7665
315.27        113.7635
315.72        114.2376
316.18        114.3641
316.63        114.3448
317.08        114.5443
317.53        115.0654
317.99        115.7804
318.44        116.5702
318.89        117.2104
319.35        117.6213
319.80        117.8791
320.25         118.053
320.70        118.2492
321.16        118.5031
321.61        118.8269
322.06        119.1573
322.51          119.41
322.97        119.5547
323.42        119.6236
323.87        119.7595
324.32        120.2136
324.78        120.9799
325.23        122.0676
325.68        123.1123
326.13        123.5222
326.59        123.1677
327.04        122.2549
327.49        121.2486
327.94        120.9238
328.39        121.4653
328.85        122.6142
329.30        124.0682
329.75        124.9784
330.20        125.0771
330.66        124.5874
331.11        123.9238
331.56        123.6644
332.01        123.9916
332.46        124.6857
332.92        125.4843
333.37        126.1402
333.82        126.4698
334.27        126.6339
334.72        126.6786
335.17        126.6465
335.63         126.592
336.08        126.5631
336.53        126.7075
336.98        127.3342
337.43        128.4777
337.88        130.0063
338.34        131.6499
338.79        133.0756
339.24         134.065
339.69        134.7053
340.14        134.9634
340.59        134.8277
341.05        134.4143
341.50        133.7533
341.95        133.1636
342.40        133.1318
342.85        133.7519
343.30        134.8889
343.75        136.2491
344.20        137.3127
344.66        137.9075
345.11        138.1615
345.56         138.176
346.01        138.1345
346.46        138.1362
346.91        138.1407
347.36        138.1851
347.81        138.3524
348.26        138.6358
348.72        138.9904
349.17        139.3955
349.62        139.8442
350.07        140.2935
350.52        140.7583
350.97        140.9967
351.42        140.6376
351.87        139.6726
352.32        138.2479
352.77        136.8552
353.22         136.212
353.67        136.4405
354.13        137.3267
354.58        138.3854
355.03        138.7443
355.48        138.1747
355.93        136.9386
356.38        135.5251
356.83        134.6747
357.28        134.5383
357.73        134.8448
358.18        135.1918
358.63        134.9488
359.08        133.9603
359.53        132.4741
359.98        130.8043
360.43        129.3844
360.88        128.3332
361.33        127.5148
361.78         126.782
362.23        125.9203
362.68         124.878
363.13        123.7477
363.58         122.633
364.03        121.6661
364.48        120.8638
364.93        120.1575
365.38        119.4492
365.83        118.6028
366.28        117.5971
366.73        116.4975
367.18        115.3883
367.63        114.3903
368.08        113.5381
368.53         112.794
368.98        112.1278
369.43        111.4874
369.88        110.8469
370.33        110.2191
370.78         109.584
371.23        108.9172
371.68        108.2116
372.13        107.4518
372.58        106.6743
373.03        105.9427
373.48        105.2585
373.93        104.6027
374.38        103.8965
374.83        103.0189
375.28        101.9654
375.72        100.7771
376.17        99.63074
376.62         98.6612
377.07         97.9207
377.52        97.39396
377.97        97.00394
378.42        96.63692
378.87        96.25019
379.32        95.82488
379.77        95.47526
380.22        95.37189
380.67        95.50448
381.11        95.84323
381.56        96.01382
382.01        95.51087
382.46        94.29982
382.91        92.63471
383.36        91.02462
383.81        90.16266
384.26        90.14812
384.71        90.73467
385.15        91.56812
385.60        92.02367
386.05        91.89964
386.50        91.38129
386.95        90.59716
387.40        89.75871
387.85        88.97845
388.29        88.14606
388.74        87.43967
389.19        86.88895
389.64        86.48318
390.09        86.20551
390.54        85.98824
390.98        85.68446
391.43        85.31421
391.88        84.91595
392.33        84.51646
392.78        84.15532
393.23        83.84551
393.67        83.52172
394.12        83.29207
394.57        83.16141
395.02        83.11239
395.47        83.10191
395.91        83.06712
396.36        82.87173
396.81        82.53629
397.26        82.13143
397.71        81.68984
398.15        81.30768
398.60         81.1105
399.05        80.73979
399.50         80.3243
399.95        80.64295
400.39        81.43205
400.84        81.21808
401.29        80.09052
401.74         79.4695
402.18        79.45695
402.63        79.20634
403.08        78.76513
403.53        78.56419
403.97        78.60342
404.42        78.76855
404.87        78.93394
405.32        78.87616
405.76        78.55082
406.21        78.12266
406.66        77.69166
407.11        77.37285
407.55        77.30121
408.00        77.43315
408.45        77.69822
408.90        78.18195
409.34        78.55834
409.79        77.94345
410.24        76.65224
410.68        75.97079
411.13        76.01284
411.58        76.09564
412.03        76.06442
412.47        75.97319
412.92        75.75405
413.37        75.44624
413.81        75.15352
414.26        75.09281
414.71        75.26722
415.15        75.63426
415.60        76.05532
416.05        76.37397
416.49        76.52728
416.94        76.54441
417.39        76.47425
417.83         76.3787
418.28        76.29366
418.73        76.20295
419.17        76.11607
419.62        76.05544
420.07        76.01258
420.51        75.96066
420.96        75.93594
421.41        75.88509
421.85        75.77264
422.30        75.80507
422.74        75.84119
423.19          75.534
423.64        74.96985
424.08        74.77327
424.53         74.9879
424.98         75.1881
425.42         75.3595
425.87        75.84718
426.31        76.46676
426.76        76.49118
427.21        75.98505
427.65        75.65025
428.10        75.55152
428.54        75.40913
428.99        75.30164
429.44        75.12963
429.88        75.03521
430.33        75.66543
430.77        76.63432
431.22        77.04942
431.66        76.80846
432.11        76.13453
432.56        75.36536
433.00        75.34398
433.45        76.14905
433.89        76.86582
434.34        76.89923
434.78        77.81435
435.23        76.86823
435.67        75.61413
436.12        75.40321
436.57        75.46005
437.01        76.02283
437.46         76.5933
437.90         76.5918
438.35        75.22517
438.79        75.99948
439.24        75.93938
439.68        76.07992
440.13        76.52515
440.57         77.1627
441.02        77.25956
441.46        76.86831
441.91        77.12384
442.35        77.78741
442.80        77.80181
443.24        77.27475
443.69        77.40333
444.13        78.08775
444.58         78.3901
445.02        78.26376
445.47        78.19742
445.91         78.2718
446.36        78.41924
446.80        78.63169
447.24        78.96073
447.69        79.34444
448.13        79.39358
448.58        79.50246
449.02        79.43125
449.47        79.33456
449.91        79.17612
450.36        79.00866
450.80        78.83041
451.25        78.71341
451.69        78.69817
452.13         78.8053
452.58        79.01418
453.02        79.24028
453.47        79.35212
453.91        79.30035
454.36        79.12284
454.80        78.87103
455.24        78.55857
455.69        78.20586
456.13        78.01165
456.58        77.99836
457.02        77.44534
457.46        76.59444
457.91        77.15656
458.35        77.77512
458.79        77.85385
459.24         77.1097
459.68        76.14227
460.13        75.24899
460.57        75.11989
461.01        75.42496
461.46        75.35296
461.90        75.93641
462.34         77.1108
462.79        76.88006
463.23        77.10014
463.68        77.02073
464.12        76.76016
464.56        76.27065
465.01        75.36754
465.45        74.31149
465.89        73.95968
466.34        74.20738
466.78        74.40092
467.22        74.53373
467.67        74.05248
468.11        74.55256
468.55        74.60789
468.99        74.63213
469.44        74.50732
469.88        74.25187
470.32        73.91426
470.77        73.57946
471.21        73.39569
471.65        73.38494
472.10        73.51907
472.54        73.68729
472.98        73.71187
473.42        73.55552
473.87        73.31724
474.31        73.00462
474.75        72.66685
475.20         72.4171
475.64        72.13339
476.08         72.4723
476.52        72.39021
476.97        71.98701
477.41        72.23735
477.85        72.39075
478.29        71.72028
478.74        72.29374
479.18        72.65273
479.62        72.48001
480.06         72.4585
480.50        72.26807
480.95        72.24257
481.39        72.45123
481.83        71.66045
482.27        71.89342
482.72        72.39676
483.16        71.99229
483.60        72.09187
484.04         72.1923
484.48        72.49715
484.93        72.52335
485.37        72.38293
485.81        71.20083
486.25        70.44122
486.69        70.38079
487.14        73.06048
487.58        73.36593
488.02        72.51397
488.46        71.51481
488.90        70.58707
489.34        72.03448
489.79        72.70721
490.23        72.38734
490.67        71.82798
491.11         71.1358
491.55        70.92783
491.99        71.15856
492.43        71.06229
492.88        70.63924
493.32        70.47042
493.76        70.58977
494.20        70.72646
494.64        70.85845
495.08        71.05964
495.52        71.25077
495.96        71.32431
496.41        71.24574
496.85        71.00977
497.29        70.63481
497.73        70.59857
498.17        70.07537
498.61        70.25049
499.05        70.70284
499.49        70.86117
499.93        70.46706
500.37        70.34013
500.82        70.44576
501.26        70.47224
501.70        70.42089
502.14        70.46364
502.58        70.59589
503.02         70.7132
503.46        70.79974
503.90         70.8935
504.34        70.94654
504.78        70.87168
505.22        70.65845
505.66        70.35624
506.10        70.08364
506.54        69.92567
506.98         69.8943
507.42           70.29
507.86        70.53756
508.30        70.52318
508.74        70.60753
509.18        70.41233
509.62        70.18266
510.06          70.046
510.50        70.04882
510.94        70.13271
511.38        70.24283
511.82        70.30783
512.26        70.30459
512.70        70.26756
513.14        70.21908
513.58        70.18965
514.02        70.19138
514.46        70.20522
514.90         70.2367
515.34        70.30069
515.78         70.3886
516.22        70.48979
516.66        70.56767
517.10        70.56208
517.54        70.46545
517.98        70.30648
518.42        70.11871
518.86        69.95662
519.30        69.84441
519.74        69.76898
520.18         69.7467
520.62        69.79945
521.06        69.92076
521.50        70.10249
521.93        70.29267
522.37        70.38207
522.81        70.35576
523.25        70.23821
523.69        70.08771
524.13        70.00154
524.57        70.00053
525.01        70.04817
525.45         70.1077
525.89        70.11815
526.32        70.05488
526.76        69.96506
527.20        69.84643
527.64        69.70061
528.08        69.53877
528.52        69.35541
528.96        69.20309
529.40        69.16444
529.83        69.24547
530.27        69.43314
530.71        69.62814
531.15        69.67679
531.59        69.55113
532.03        69.29591
532.46          69.017
532.90        68.92633
533.34        69.04374
533.78        69.28123
534.22        69.53571
534.66        69.66327
535.09        69.55943
535.53        69.41863
535.97        68.83514
536.41        68.56992
536.85        68.52619
537.28        68.55727
537.72        68.62804
538.16        68.74558
538.60        68.88558
539.04        69.04153
539.47        69.16926
539.91        69.24139
540.35        69.23554
540.79        69.16044
541.22        69.04247
541.66        68.95286
542.10        68.90343
542.54        68.88023
542.97        68.85878
543.41        68.83018
543.85        68.77924
544.29        68.72514
544.72        68.66292
545.16          68.612
545.60        68.56452
546.04        68.55652
546.47         68.5986
546.91        68.63064
547.35        68.68771
547.79        68.90762
548.22        69.20885
548.66        69.38187
549.10        69.43046
549.53        69.25758
549.97        68.97279
550.41        68.70182
550.84        68.55657
551.28        68.66145
551.72        68.91996
552.15        68.90925
552.59        69.19763
553.03        68.56409
553.46        68.96358
553.90        68.85738
554.34        68.76257
554.77        68.75051
555.21        68.86099
555.65        68.67661
556.08        68.88276
556.52        68.86656
556.96        68.81459
557.39        68.84768
557.83         68.9191
558.27        68.64836
558.70        68.11851
559.14        67.91106
559.57        68.01314
560.01        68.00129
560.45        67.90693
560.88        68.08434
561.32        68.48147
561.75        68.76269
562.19        68.87354
562.63        68.73352
563.06        68.44559
563.50        68.41676
563.93        68.56599
564.37        68.60818
564.80          68.538
565.24        68.33044
565.68        67.90358
566.11        68.57132
566.55        67.87933
566.98        67.82353
567.42        67.77509
567.85        67.85046
568.29        68.05972
568.72        68.40533
569.16        68.89708
569.60        69.02446
570.03          68.994
570.47        69.08119
570.90        69.41695
571.34        68.42892
571.77        69.04215
572.21        69.16945
572.64        68.60193
573.08        69.55168
573.51        68.88506
573.95        68.92461
574.38        69.01024
574.82        69.14454
