SpectraSmart Spectrum 2.9.0.0
--------- Device Information -----------
Spectrum Name :  反射率_0
Saving Time :  2024/04/26 22:43:39
Spectro-Module Model Name : SE2030-DUVN
Spectro-Module Serial Number : OS361AC55029948
Wavelength Start : 200
Wavelength End : 1025
Wavelength Unit : Wavelength(nm)
Spectrum Unit : Reflectance(%)
-----------Spectrum Setting ------------
Integration Time : 20ms
Average : 10
Boxcar : 0
Background removal :  enabled
linearity correction :  enabled
SC :  disabled
Intensity correction :  disabled
DWT denoise :  enabled
savitzky-golay :  disabled
FFT :  disabled
Running average :  disabled
Kalman :  disabled
High pass :  disabled
---------------BEGIN--------------------
Wavelength(nm)             Reflectance(%)
200.29               0
200.75        46.87321
201.21        49.11987
201.67        50.60135
202.13        51.86324
202.58        53.16157
203.04        54.76752
203.50        56.62685
203.96        58.05462
204.42        58.53788
204.88        58.12035
205.34        57.39509
205.80        57.64213
206.26        58.91439
206.72         60.2921
207.18        61.37384
207.64        61.92402
208.10        61.99016
208.55        62.30611
209.01        61.45598
209.47        57.69699
209.93        52.67464
210.39        48.66546
210.85        46.94343
211.31        48.02419
211.77        52.45802
212.23        63.66042
212.69        92.99857
213.14        145.9929
213.60        149.1057
214.06         115.948
214.52        91.82491
214.98        80.11209
215.44        74.09167
215.90        69.34259
216.36        65.80315
216.81         64.1524
217.27        64.83263
217.73        69.12485
218.19        75.88641
218.65         77.5183
219.11        72.07078
219.57        64.52228
220.02        60.01953
220.48        61.75905
220.94        69.41293
221.40        83.86759
221.86        104.4232
222.32        117.0127
222.77        109.9429
223.23        93.10632
223.69        76.80764
224.15        66.57936
224.61        61.29369
225.06        58.16486
225.52        56.56923
225.98        55.65559
226.44        55.04047
226.90        54.99733
227.36        54.83643
227.81        53.40131
228.27        50.91405
228.73        47.82495
229.19        45.35866
229.65        44.91746
230.10        46.43507
230.56        49.35182
231.02        52.43696
231.48        53.72794
231.93        52.79572
232.39        50.63681
232.85        48.27111
233.31        47.05563
233.77        47.16183
234.22        48.15008
234.68        49.38504
235.14        50.00022
235.60        49.76329
236.05        49.03835
236.51        48.18489
236.97        47.93305
237.43        48.61914
237.88        50.04172
238.34        52.05783
238.80        54.77646
239.26        58.38277
239.71        63.61499
240.17        70.08597
240.63         76.4483
241.08        81.61431
241.54        84.50892
242.00         86.8636
242.46        93.35836
242.91        107.8155
243.37        132.7406
243.83        169.0318
244.28        200.5549
244.74        202.6413
245.20        174.8908
245.66        139.4994
246.11        116.4042
246.57        106.6305
247.03        104.6288
247.48        104.9815
247.94        100.1253
248.40        91.13953
248.85        82.32987
249.31        76.59575
249.77        74.80359
250.22        76.24126
250.68        80.23366
251.14        85.43527
251.59         87.3131
252.05        84.09372
252.51        78.73624
252.96        73.55507
253.42        71.00297
253.88        70.76166
254.33        71.06625
254.79        72.91237
255.25        76.84534
255.70        82.32305
256.16        89.17908
256.62        94.14336
257.07        92.50206
257.53        86.40263
257.99        79.09554
258.44        73.33392
258.90          71.686
259.35        72.76701
259.81        75.49713
260.27        78.07161
260.72        78.35616
261.18        76.60132
261.63        73.52094
262.09        70.59321
262.55        68.70832
263.00         67.7451
263.46        67.44217
263.91        66.95995
264.37        65.65771
264.83        63.51956
265.28        60.92115
265.74        58.65916
266.19         57.3484
266.65        57.09862
267.11         57.4918
267.56        58.05456
268.02        58.06202
268.47        57.30368
268.93        56.06171
269.38        54.52013
269.84        53.03164
270.30        51.70522
270.75        50.41131
271.21         49.2423
271.66        48.27921
272.12        47.51114
272.57        46.89997
273.03        46.27262
273.48        45.31551
273.94        44.05296
274.39        42.58069
274.85        41.15951
275.31        39.99164
275.76        39.10458
276.22        38.46503
276.67        37.97796
277.13        37.61474
277.58        37.27947
278.04        36.99823
278.49        36.67332
278.95        36.29202
279.40        35.78788
279.86          35.236
280.31        34.59212
280.77        33.92263
281.22        33.21339
281.68        32.53875
282.13        31.91613
282.59        31.45747
283.04        31.14068
283.50        30.96784
283.95        30.88158
284.41        30.80461
284.86        30.71006
285.32        30.63885
285.77        30.60385
286.22        30.69744
286.68        30.91972
287.13        31.18232
287.59        31.43976
288.04        31.57553
288.50        31.58764
288.95        31.48903
289.41        31.32121
289.86        31.06897
290.32         30.8015
290.77        30.52682
291.22        30.34661
291.68        30.38817
292.13        30.67356
292.59        31.20754
293.04        31.93026
293.50         32.7545
293.95        33.64391
294.40        34.62605
294.86        35.74127
295.31        37.04353
295.77        38.54065
296.22        40.17387
296.68        41.89653
297.13        43.62719
297.58         45.3517
298.04        47.09555
298.49        48.86327
298.95        50.68645
299.40        52.55374
299.85        54.44583
300.31        56.37259
300.76        58.32774
301.21         60.3121
301.67        62.34472
302.12         64.3521
302.58        66.31413
303.03        68.18703
303.48        70.02885
303.94        71.91423
304.39        73.87942
304.84        75.96259
305.30        78.13671
305.75        80.33432
306.20        82.55473
306.66        84.77586
307.11         86.9375
307.57        88.97108
308.02        90.65415
308.47        91.99989
308.93        93.09186
309.38        94.07059
309.83        95.28255
310.29        96.80125
310.74        98.51833
311.19        100.2414
311.65        101.6185
312.10        102.5322
312.55         103.089
313.00         103.478
313.46        103.9952
313.91        104.7017
314.36        105.5487
314.82        106.4084
315.27        107.1001
315.72        107.5552
316.18          107.86
316.63        108.1145
317.08        108.5228
317.53        109.1263
317.99        109.8426
318.44        110.5448
318.89        110.9972
319.35        111.1438
319.80        111.0728
320.25        110.9239
320.70        110.9232
321.16        111.1335
321.61        111.5277
322.06        112.0086
322.51        112.4221
322.97        112.7022
323.42        112.9001
323.87        113.1003
324.32        113.4634
324.78        113.9776
325.23        114.6595
325.68        115.2828
326.13        115.5034
326.59        115.2539
327.04        114.6803
327.49        114.0687
327.94         113.903
328.39        114.3005
328.85        115.0838
329.30        116.1118
329.75        116.8489
330.20        117.1191
330.66        117.0409
331.11        116.8585
331.56        116.8861
332.01        117.2303
332.46        117.7606
332.92        118.3103
333.37        118.7862
333.82        119.0692
334.27        119.2571
334.72        119.3881
335.17        119.4976
335.63        119.6203
336.08        119.8183
336.53        120.1631
336.98        120.8255
337.43        121.8174
337.88        123.0373
338.34        124.3419
338.79        125.6188
339.24        126.7067
339.69        127.6217
340.14        128.2041
340.59        128.2313
341.05        127.7593
341.50        126.8948
341.95        126.0252
342.40         125.737
342.85        126.1684
343.30        127.1598
343.75        128.4356
344.20        129.5079
344.66        130.2051
345.11        130.6505
345.56        130.9056
346.01        131.0852
346.46        131.2561
346.91        131.3701
347.36        131.4787
347.81        131.6943
348.26        132.0227
348.72        132.4284
349.17        132.8519
349.62        133.2246
350.07        133.5079
350.52        133.7368
350.97        133.7992
351.42        133.5261
351.87        132.9283
352.32        132.0735
352.77        131.2479
353.22        130.8651
353.67        130.9907
354.13        131.5039
354.58        132.1039
355.03        132.2349
355.48        131.7578
355.93        130.8338
356.38        129.8069
356.83        129.1988
357.28        129.1056
357.73        129.3335
358.18        129.5626
358.63        129.2899
359.08        128.3941
359.53        127.0629
359.98        125.5617
360.43        124.2618
360.88        123.2625
361.33        122.4579
361.78        121.7103
362.23        120.8119
362.68        119.7281
363.13        118.5599
363.58        117.4336
364.03        116.5196
364.48         115.839
364.93        115.3013
365.38        114.8026
365.83        114.1927
366.28        113.4289
366.73        112.5727
367.18        111.6445
367.63        110.6725
368.08        109.6829
368.53        108.6639
368.98        107.6949
369.43        106.8998
369.88        106.2977
370.33        105.8691
370.78        105.4801
371.23        104.9068
371.68         104.096
372.13        103.0927
372.58        102.0746
373.03        101.3288
373.48        100.9033
373.93        100.7027
374.38        100.4915
374.83        99.90187
375.28        98.86897
375.72        97.51294
376.17        96.14614
376.62        95.11515
377.07        94.51363
377.52        94.24297
377.97        94.12202
378.42        93.87099
378.87        93.40726
379.32        92.79147
379.77        92.19415
380.22        91.85614
380.67        91.80125
381.11        91.97595
381.56        92.05222
382.01        91.60364
382.46        90.58996
382.91        89.22168
383.36        87.91061
383.81        87.21251
384.26        87.19997
384.71        87.66865
385.15        88.30672
385.60        88.56989
386.05         88.2991
386.50        87.66637
386.95        86.82793
387.40        86.03395
387.85        85.38917
388.29        84.76626
388.74        84.28672
389.19        83.90671
389.64        83.60303
390.09        83.38379
390.54        83.19297
390.98        82.90683
391.43        82.54922
391.88        82.14282
392.33        81.74391
392.78        81.41135
393.23        81.15307
393.67        80.97433
394.12        80.90836
394.57        80.68177
395.02        80.35046
395.47        80.28812
395.91        80.42762
396.36        80.28664
396.81         79.8616
397.26        79.41504
397.71        79.00127
398.15        78.60307
398.60        78.34166
399.05        78.04958
399.50        77.75405
399.95        77.79711
400.39        78.06517
400.84        77.75292
401.29        76.97825
401.74        76.78147
402.18         77.1079
402.63        76.89474
403.08        76.22911
403.53        75.96684
403.97           76.13
404.42        76.28249
404.87        76.33346
405.32        76.29228
405.76        76.12222
406.21        75.90878
406.66        75.66421
407.11        75.36966
407.55        75.12691
408.00        74.95984
408.45        74.90498
408.90        75.15892
409.34        75.51109
409.79        75.23817
410.24         74.4996
410.68        74.16753
411.13        74.29649
411.58        74.37881
412.03        74.31765
412.47        74.20237
412.92        73.99081
413.37        73.70253
413.81        73.39293
414.26        73.20879
414.71        73.15099
415.15        73.21622
415.60        73.34033
416.05        73.49224
416.49        73.65038
416.94        73.80312
417.39        73.94762
417.83        74.06438
418.28        74.15291
418.73        74.21234
419.17        74.23256
419.62        74.20668
420.07        74.12794
420.51        73.97947
420.96        73.83873
421.41        73.71522
421.85        73.58798
422.30        73.66782
422.74        73.79251
423.19        73.51198
423.64         72.9309
424.08        72.83689
424.53        73.21438
424.98        73.39709
425.42        73.35027
425.87        73.53806
426.31        73.87119
426.76        73.73174
427.21        73.21697
427.65        72.99294
428.10        73.05961
428.54        73.03989
428.99        72.98247
429.44        72.81593
429.88        72.69434
430.33        73.30518
430.77        74.28816
431.22        74.66925
431.66        74.36562
432.11         73.8253
432.56        73.27046
433.00        73.10751
433.45        73.53307
433.89        74.08665
434.34        74.15511
434.78        75.86814
435.23        74.84821
435.67        73.50208
436.12        72.64885
436.57        72.64396
437.01        73.65649
437.46         74.1415
437.90        74.16463
438.35        72.71953
438.79        73.74012
439.24        73.76337
439.68        73.87271
440.13        74.26231
440.57        74.84827
441.02        74.79729
441.46        74.22073
441.91        74.63305
442.35         75.6199
442.80         75.3974
443.24        74.22486
443.69        74.17448
444.13        75.13279
444.58        75.73608
445.02        75.37724
445.47        75.41917
445.91        75.74407
446.36        75.98208
446.80        76.09317
447.24        76.47667
447.69        76.54784
448.13        76.68795
448.58        76.73954
449.02        76.70445
449.47        76.62279
449.91         76.5385
450.36        76.49833
450.80        76.46511
451.25        76.46426
451.69        76.46993
452.13        76.49247
452.58        76.52842
453.02        76.56896
453.47        76.60635
453.91        76.62346
454.36        76.63442
454.80        76.63047
455.24        76.46568
455.69        76.12681
456.13        75.90402
456.58        75.94277
457.02        75.11417
457.46        75.06067
457.91        75.37107
458.35        75.76035
458.79        75.72583
459.24        75.17189
459.68        74.38588
460.13        73.59255
460.57        73.37043
461.01        73.92857
461.46        73.69427
461.90        73.88825
462.34        75.73538
462.79        74.95869
463.23        75.22585
463.68        75.18649
464.12         75.0354
464.56        74.68419
465.01        73.93047
465.45         73.0384
465.89        72.60464
466.34        72.58344
466.78        72.94379
467.22        73.63715
467.67        72.61377
468.11        72.89069
468.55         72.8597
468.99        73.31594
469.44        73.40161
469.88        73.11227
470.32        72.87395
470.77        72.73735
471.21          72.654
471.65         72.6313
472.10         72.6935
472.54        72.77871
472.98        72.77885
473.42        72.66248
473.87        72.54423
474.31        72.39439
474.75         72.0727
475.20        71.69917
475.64        71.62464
476.08        71.81936
476.52        71.80657
476.97        71.52383
477.41        71.40439
477.85        71.61311
478.29        71.19029
478.74        71.58248
479.18        72.28757
479.62        71.92097
480.06        71.98524
480.50         71.9025
480.95        71.90878
481.39        72.05865
481.83        71.30481
482.27        71.50611
482.72        71.85217
483.16        71.49342
483.60        71.53028
484.04        71.54008
484.48        71.82723
484.93        72.04175
485.37        71.54729
485.81        71.10222
486.25        70.48514
486.69        69.25935
487.14          71.958
487.58        72.60416
488.02        71.96429
488.46        70.66974
488.90        70.43892
489.34        71.75796
489.79        72.83327
490.23        72.03049
490.67        71.39591
491.11        70.79639
491.55        70.72158
491.99         71.1027
492.43        71.12638
492.88        70.78123
493.32        70.67833
493.76        70.85704
494.20        71.02111
494.64        71.14496
495.08        71.33412
495.52        71.50732
495.96        71.49287
496.41        71.31587
496.85        71.11678
497.29        70.85792
497.73        70.95892
498.17        70.51932
498.61        70.36431
499.05        70.26817
499.49         70.5575
499.93        70.84899
500.37        70.96485
500.82        70.82627
501.26        70.63638
501.70        70.47227
502.14         70.5518
502.58        70.87724
503.02        70.70987
503.46        70.88682
503.90         70.9116
504.34        71.01209
504.78        71.01022
505.22        70.89387
505.66        70.72944
506.10        70.58282
506.54         70.4537
506.98         70.3375
507.42         70.5613
507.86        70.72609
508.30        70.46384
508.74        70.68724
509.18        70.58536
509.62        70.49528
510.06        70.43875
510.50        70.43941
510.94        70.46597
511.38        70.49514
511.82        70.52013
512.26        70.53493
512.70         70.5461
513.14        70.54998
513.58        70.57964
514.02        70.64445
514.46        70.65659
514.90        70.59989
515.34        70.85756
515.78        70.77956
516.22        70.87691
516.66        70.93581
517.10        70.93767
517.54        70.87474
517.98        70.76967
518.42          70.652
518.86        70.55257
519.30        70.48476
519.74        70.43613
520.18        70.40973
520.62        70.40681
521.06        70.42479
521.50          70.473
521.93        70.52345
522.37        70.50586
522.81        70.42364
523.25        70.29326
523.69        70.18172
524.13        70.19801
524.57        70.35029
525.01        70.58411
525.45        70.81788
525.89        70.92025
526.32        70.84802
526.76        70.67077
527.20        70.41174
527.64        70.11731
528.08        69.82639
528.52        69.52804
528.96        69.29639
529.40        69.26431
529.83        69.42892
530.27        69.71615
530.71        70.02055
531.15        70.21487
531.59        70.25202
532.03        70.14292
532.46        69.94626
532.90        69.82257
533.34        69.79948
533.78        69.79725
534.22        69.77563
534.66        69.76125
535.09        69.69315
535.53        69.43725
535.97        69.07747
536.41        68.91879
536.85        68.99381
537.28        69.15234
537.72        69.33746
538.16        69.51086
538.60        69.63843
539.04        69.72826
539.47        69.77255
539.91        69.80714
540.35        69.82575
540.79        69.81991
541.22        69.79343
541.66        69.77985
542.10        69.77588
542.54        69.77615
542.97        69.76151
543.41         69.7311
543.85        69.67545
544.29        69.61293
544.72        69.53123
545.16        69.45178
545.60        69.36881
546.04        69.28679
546.47        69.24435
546.91        69.29556
547.35        69.43752
547.79        69.64968
548.22        69.85774
548.66        69.93056
549.10        69.92086
549.53        69.83171
549.97        69.71616
550.41        69.49543
550.84        69.24664
551.28        69.22856
551.72        69.39162
552.15         69.4263
552.59        69.34415
553.03         69.2933
553.46        69.40894
553.90        69.43912
554.34        69.41279
554.77        69.36754
555.21        69.35416
555.65        69.41676
556.08        69.54167
556.52        69.72364
556.96        69.87151
557.39        69.86493
557.83        69.71561
558.27        69.44254
558.70        69.11438
559.14        68.95485
559.57        68.94458
560.01         68.8679
560.45        68.76199
560.88        68.89612
561.32        69.22461
561.75        69.44196
562.19        69.50607
562.63        69.35824
563.06         69.1067
563.50        69.12219
563.93        69.30756
564.37        69.42583
564.80        69.42947
565.24        69.13354
565.68        68.50725
566.11        69.11404
566.55        68.49784
566.98        68.50909
567.42         68.4946
567.85        68.67194
568.29        68.99781
568.72        69.28825
569.16        69.59447
569.60         69.6087
570.03        69.54773
570.47        69.59648
570.90        69.94117
571.34        68.79798
571.77        69.61356
572.21        69.77767
572.64        69.54808
573.08        70.03051
573.51        69.22984
573.95        69.04203
574.38         69.1608
574.82        69.38464
