SpectraSmart Spectrum 2.9.0.0
--------- Device Information -----------
Spectrum Name :  反射率_0
Saving Time :  2024/04/26 22:40:18
Spectro-Module Model Name : SE2030-DUVN
Spectro-Module Serial Number : OS361AC55029948
Wavelength Start : 200
Wavelength End : 1025
Wavelength Unit : Wavelength(nm)
Spectrum Unit : Reflectance(%)
-----------Spectrum Setting ------------
Integration Time : 20ms
Average : 10
Boxcar : 0
Background removal :  enabled
linearity correction :  enabled
SC :  disabled
Intensity correction :  disabled
DWT denoise :  enabled
savitzky-golay :  disabled
FFT :  disabled
Running average :  disabled
Kalman :  disabled
High pass :  disabled
---------------BEGIN--------------------
Wavelength(nm)             Reflectance(%)
200.29               0
200.75        32.50203
201.21        32.62621
201.67        33.32803
202.13        34.16164
202.58        34.99662
203.04          36.288
203.50         38.2152
203.96        40.57477
204.42        42.90072
204.88        44.74589
205.34         45.3734
205.80         44.2572
206.26        41.61932
206.72        38.04938
207.18         34.5171
207.64        31.29211
208.10        28.01838
208.55        24.35951
209.01         19.8613
209.47        16.71318
209.93        16.87604
210.39        19.06993
210.85        21.80696
211.31        24.95588
211.77        29.70237
212.23         39.3092
212.69        62.63783
213.14        103.6316
213.60         104.565
214.06        77.05788
214.52        57.84806
214.98        49.38975
215.44        46.00096
215.90        44.28999
216.36        43.19672
216.81         41.3816
217.27         38.6222
217.73        35.43918
218.19        32.06485
218.65        30.41202
219.11        31.82175
219.57        34.39128
220.02        37.51176
220.48        42.44887
220.94         50.0615
221.40        61.84311
221.86         77.6174
222.32        87.46378
222.77        82.66865
223.23        70.26981
223.69        57.59589
224.15        48.56955
224.61        42.74398
225.06        38.51395
225.52        35.90269
225.98        34.82212
226.44         34.8718
226.90        35.89189
227.36        36.94259
227.81        36.45106
228.27         34.3947
228.73        31.41032
229.19         28.6605
229.65        27.42571
230.10        27.74406
230.56        29.14483
231.02         30.8116
231.48        31.45538
231.93        30.80229
232.39        29.53074
232.85        28.31681
233.31         28.0789
233.77        28.87985
234.22        30.35643
234.68        31.95856
235.14        32.98227
235.60        33.20121
236.05        32.86346
236.51        32.12479
236.97        31.28458
237.43        30.58756
237.88        30.01801
238.34        29.77751
238.80        30.37857
239.26        32.03829
239.71        35.11596
240.17        39.38894
240.63        43.79254
241.08        47.49264
241.54        50.09944
242.00        52.14346
242.46        55.49836
242.91        61.90933
243.37        71.69357
243.83        86.36755
244.28        103.4572
244.74        114.3477
245.20         115.315
245.66        108.7564
246.11        98.70068
246.57        87.29906
247.03        74.17478
247.48        60.57767
247.94        50.94341
248.40        47.18146
248.85        46.88068
249.31        48.32669
249.77        50.00683
250.22        51.54047
250.68        53.43028
251.14        55.08124
251.59        54.59064
252.05        51.75657
252.51        47.96555
252.96        44.14905
253.42        41.33851
253.88        39.45437
254.33        37.82008
254.79        37.46996
255.25        38.98769
255.70        41.94423
256.16        45.97366
256.62        48.85602
257.07        47.48435
257.53        43.23125
257.99        38.31444
258.44        34.50264
258.90        33.34819
259.35        34.01459
259.81        35.74884
260.27        37.47869
260.72        37.92777
261.18        37.16684
261.63        35.65146
262.09        34.19017
262.55        33.30042
263.00         32.9404
263.46        32.93598
263.91        32.84887
264.37        32.30587
264.83        31.30289
265.28        30.03505
265.74         28.9533
266.19        28.41627
266.65        28.48199
267.11        28.91733
267.56        29.42106
268.02        29.51002
268.47        29.06347
268.93        28.25825
269.38        27.27046
269.84        26.40653
270.30        25.75125
270.75         25.2076
271.21          24.755
271.66        24.32845
272.12        23.90102
272.57        23.49211
273.03        23.07882
273.48        22.60945
273.94        22.10852
274.39        21.56346
274.85        21.03182
275.31        20.50824
275.76         19.9821
276.22        19.46549
276.67        18.96562
277.13         18.5352
277.58        18.15043
278.04        17.81966
278.49        17.44913
278.95        16.97781
279.40        16.37966
279.86        15.73539
280.31        15.11782
280.77        14.68205
281.22        14.42846
281.68         14.3289
282.13        14.28426
282.59        14.19538
283.04         14.0255
283.50        13.80744
283.95        13.59116
284.41        13.46002
284.86        13.42591
285.32        13.45396
285.77        13.47629
286.22        13.43309
286.68        13.31306
287.13        13.12903
287.59        12.91799
288.04         12.7101
288.50         12.5358
288.95        12.37571
289.41        12.24444
289.86          12.129
290.32        12.04386
290.77        11.99154
291.22        11.97668
291.68        11.99726
292.13        12.04805
292.59        12.13219
293.04        12.25567
293.50        12.44177
293.95        12.68425
294.40        12.97716
294.86         13.2896
295.31        13.57221
295.77        13.81949
296.22        14.04269
296.68        14.28288
297.13        14.59887
297.58        15.00589
298.04        15.48739
298.49        16.00491
298.95        16.50512
299.40        16.96968
299.85        17.41866
300.31        17.87372
300.76         18.3683
301.21        18.91041
301.67        19.49579
302.12        20.09727
302.58        20.71418
303.03        21.32239
303.48        21.93217
303.94        22.55436
304.39        23.18641
304.84        23.83992
305.30        24.53391
305.75        25.23608
306.20         25.9369
306.66        26.64374
307.11        27.34896
307.57        28.10385
308.02        28.95038
308.47        29.89549
308.93        30.92182
309.38        31.96204
309.83        32.96221
310.29        33.91654
310.74        34.84712
311.19        35.77756
311.65        36.72773
312.10        37.69067
312.55        38.64443
313.00        39.61218
313.46        40.64825
313.91        41.75866
314.36        42.95151
314.82        44.16394
315.27        45.28681
315.72        46.27528
316.18        47.15463
316.63        47.99357
317.08        48.94005
317.53        50.02995
317.99        51.21571
318.44        52.40694
318.89        53.43081
319.35        54.24373
319.80        54.90549
320.25        55.51729
320.70        56.24594
321.16        57.13626
321.61        58.15314
322.06        59.21721
322.51        60.20011
322.97        61.04303
323.42        61.77708
323.87        62.45704
324.32         63.1934
324.78        63.99215
325.23        64.86191
325.68        65.66228
326.13        66.16813
326.59        66.33549
327.04        66.26399
327.49        66.15877
327.94        66.36621
328.39        66.97624
328.85        67.87171
329.30        68.94053
329.75        69.80187
330.20        70.31747
330.66        70.57069
331.11        70.70353
331.56          70.908
332.01        71.26141
332.46        71.68335
332.92        72.11631
333.37        72.57928
333.82         73.0179
334.27        73.48116
334.72        73.93082
335.17        74.28181
335.63        74.52677
336.08         74.7252
336.53        74.99199
336.98        75.55272
337.43        76.44607
337.88        77.58126
338.34        78.77848
338.79        79.81329
339.24        80.54849
339.69        81.04008
340.14        81.30764
340.59        81.40554
341.05        81.40795
341.50        81.30902
341.95        81.22517
342.40        81.33498
342.85        81.68295
343.30        82.23566
343.75        82.90836
344.20        83.53693
344.66          84.063
345.11        84.52116
345.56         84.9117
346.01        85.24644
346.46        85.54957
346.91        85.81927
347.36        86.09702
347.81        86.46515
348.26        86.92593
348.72        87.43246
349.17        87.95227
349.62        88.45936
350.07        88.92612
350.52        89.37894
350.97        89.68783
351.42        89.64852
351.87        89.26344
352.32        88.61291
352.77        87.99829
353.22        87.86467
353.67        88.28351
354.13        89.11779
354.58        90.04864
355.03        90.50324
355.48        90.32733
355.93        89.69293
356.38        88.90919
356.83        88.44851
357.28        88.41915
357.73         88.6569
358.18        88.94075
358.63        88.92091
359.08        88.50607
359.53        87.83682
359.98        87.07084
360.43        86.42136
360.88        85.94804
361.33        85.57729
361.78        85.24326
362.23        84.85419
362.68        84.38809
363.13        83.89233
363.58        83.40298
364.03         82.9601
364.48         82.5698
364.93        82.20471
365.38         81.8467
365.83         81.4789
366.28        81.09434
366.73        80.70036
367.18        80.29282
367.63        79.86089
368.08        79.40621
368.53        78.93697
368.98         78.4668
369.43        78.01551
369.88        77.59057
370.33        77.18763
370.78         76.8082
371.23        76.45795
371.68        76.13245
372.13        75.82169
372.58        75.51353
373.03        75.18659
373.48        74.83056
373.93        74.45135
374.38        74.03535
374.83        73.56799
375.28        73.05842
375.72        72.50194
376.17        71.99203
376.62        71.58012
377.07        71.28664
377.52        71.11199
377.97        70.99257
378.42        70.83807
378.87        70.63171
379.32        70.33047
379.77        70.03439
380.22        70.00909
380.67         70.2868
381.11        70.36961
381.56        70.79884
382.01        70.52149
382.46        69.74595
382.91        68.63737
383.36        67.57762
383.81        67.07641
384.26        67.20293
384.71         67.7841
385.15        68.54216
385.60        68.99162
386.05        68.97895
386.50        68.64878
386.95        68.12495
387.40        67.60786
387.85          67.183
388.29        66.74622
388.74        66.39914
389.19        66.12197
389.64        65.90331
390.09        65.75085
390.54        65.62831
390.98        65.44698
391.43        65.22771
391.88        64.98601
392.33        64.75526
392.78        64.57185
393.23         64.4429
393.67        64.34591
394.12        64.33265
394.57        64.23759
395.02        64.24083
395.47         64.1696
395.91        64.09959
396.36         64.0292
396.81        63.98986
397.26        63.98816
397.71        63.95685
398.15        63.83849
398.60        63.70905
399.05        63.34914
399.50        62.92751
399.95        63.11978
400.39        63.75977
400.84         63.7369
401.29        63.06841
401.74          62.715
402.18        62.73146
402.63        62.52864
403.08        62.17307
403.53         62.0278
403.97         62.1101
404.42        62.31587
404.87        62.55565
405.32        62.66752
405.76        62.58422
406.21        62.46643
406.66        62.37914
407.11        62.21709
407.55        61.97531
408.00        62.51866
408.45        62.06755
408.90        62.35786
409.34        62.69915
409.79        62.54838
410.24        61.97823
410.68        61.64447
411.13        61.61978
411.58        61.46893
412.03         61.1576
412.47        61.20083
412.92        60.97291
413.37        60.95734
413.81        60.96937
414.26        61.08334
414.71         61.2732
415.15        61.55228
415.60        61.85435
416.05        62.11037
416.49        62.29524
416.94        62.40892
417.39        62.47715
417.83        62.53627
418.28        62.60545
418.73        62.67244
419.17        62.74122
419.62        62.82046
420.07        62.89892
420.51        62.95617
420.96        63.00665
421.41         62.9934
421.85        62.89112
422.30        62.85785
422.74        62.82269
423.19         62.6106
423.64        62.28263
424.08        62.23976
424.53        62.48107
424.98        62.68869
425.42        62.84222
425.87        63.17544
426.31        63.58348
426.76        63.60575
427.21        63.30139
427.65        63.13646
428.10         63.1475
428.54        63.15693
428.99        63.22302
429.44        63.21319
429.88        63.22416
430.33         63.8398
430.77        64.73717
431.22        65.02505
431.66        64.67685
432.11        64.27827
432.56        63.99682
433.00        63.88332
433.45        64.12602
433.89        64.61146
434.34        64.76271
434.78        66.12768
435.23        65.37106
435.67        63.61609
436.12        64.37476
436.57        64.50744
437.01        65.07552
437.46         65.2785
437.90         65.1379
438.35            64.7
438.79        64.78761
439.24        64.79614
439.68        64.92963
440.13        65.30177
440.57        65.82481
441.02        65.92867
441.46        65.67633
441.91        66.03802
442.35        66.71284
442.80        66.65982
443.24         66.0386
443.69        65.94734
444.13        66.29664
444.58        67.09696
445.02        66.71736
445.47        66.86946
445.91        67.14292
446.36         67.5108
446.80        67.54904
447.24        67.66378
447.69        67.75833
448.13        67.82324
448.58        67.87776
449.02        67.90278
449.47        67.92176
449.91        67.92787
450.36        67.94471
450.80         67.9671
451.25        68.01321
451.69        68.02626
452.13        68.03125
452.58        68.08658
453.02        68.17834
453.47        68.24008
453.91        68.25106
454.36         68.2555
454.80         68.2598
455.24        68.11771
455.69        67.81744
456.13        67.66328
456.58        67.75293
457.02        66.88477
457.46        66.75974
457.91        66.86073
458.35        67.37869
458.79        67.33942
459.24        66.76953
459.68        66.02512
460.13        65.37249
460.57        65.18148
461.01        65.59439
461.46         65.5275
461.90        66.44705
462.34        66.89078
462.79        66.59141
463.23        66.73438
463.68        67.11047
464.12        67.00493
464.56        66.40427
465.01         65.5317
465.45        64.65268
465.89        64.46083
466.34        64.86005
466.78        65.26375
467.22        65.48994
467.67         65.2894
468.11        64.82018
468.55        64.78806
468.99          65.165
469.44        65.19608
469.88        64.87617
470.32        64.69987
470.77        64.70077
471.21        64.67741
471.65        64.62173
472.10        64.60205
472.54         64.5978
472.98        64.56985
473.42        64.50425
473.87        64.45955
474.31        64.38213
474.75        64.15462
475.20        63.84518
475.64        63.68326
476.08         63.7074
476.52        63.58739
476.97        63.25602
477.41        63.24944
477.85        63.71849
478.29        62.90688
478.74        63.19321
479.18        64.10898
479.62        63.58797
480.06        63.77118
480.50        63.86147
480.95        63.80421
481.39        63.52724
481.83        63.72051
482.27        63.46305
482.72        63.40569
483.16        63.32467
483.60        63.28466
484.04        63.28479
484.48        63.50754
484.93        63.66825
485.37         63.5006
485.81        62.80085
486.25        62.61731
486.69        61.84943
487.14        64.07594
487.58        63.84748
488.02        63.92514
488.46        62.87888
488.90         62.8272
489.34        63.97232
489.79        64.53877
490.23        63.74336
490.67        63.15422
491.11        62.76042
491.55        62.66077
491.99        62.80471
492.43        62.75602
492.88        62.51357
493.32        62.46281
493.76         62.6048
494.20        62.72044
494.64        62.78268
495.08        62.81616
495.52        62.82253
495.96        62.86012
496.41        62.89964
496.85        62.85729
497.29        62.64827
497.73        62.56354
498.17        61.91417
498.61        61.87796
499.05        62.18175
499.49        62.53362
499.93        62.57926
500.37        62.52326
500.82        62.35308
501.26        62.23183
501.70        62.22104
502.14        62.34999
502.58        62.57516
503.02        62.66181
503.46        62.70761
503.90        62.72674
504.34         62.7505
504.78        62.71097
505.22        62.61221
505.66        62.47805
506.10        62.35144
506.54        62.28762
506.98        62.29649
507.42        62.40155
507.86        62.50763
508.30        62.53013
508.74         62.5217
509.18        62.43534
509.62        62.33219
510.06        62.26861
510.50        62.26299
510.94        62.29565
511.38        62.34679
511.82        62.38688
512.26        62.40705
512.70        62.42042
513.14        62.43542
513.58        62.46432
514.02         62.5085
514.46        62.55461
514.90        62.59996
515.34        62.64431
515.78        62.68103
516.22        62.70783
516.66        62.70647
517.10        62.64707
517.54         62.5316
517.98        62.38023
518.42        62.22298
518.86        62.10715
519.30        62.04782
519.74        62.02935
520.18        62.05231
520.62        62.11357
521.06        62.20508
521.50        62.33176
521.93        62.45598
522.37        62.49587
522.81        62.44825
523.25        62.33057
523.69        62.21376
524.13        62.21374
524.57        62.34565
525.01        62.56123
525.45        62.78125
525.89        62.87698
526.32        62.80745
526.76        62.63633
527.20        62.40107
527.64        62.16534
528.08        61.96359
528.52        61.78356
528.96        61.65538
529.40        61.62605
529.83        61.69195
530.27        61.84195
530.71        62.01703
531.15        62.12394
531.59        62.13735
532.03        62.08041
532.46          61.969
532.90        61.87688
533.34        61.81668
533.78        61.73488
534.22        61.64754
534.66        61.65728
535.09        61.71765
535.53        61.67678
535.97        61.53119
536.41        61.43427
536.85         61.3932
537.28        61.31562
537.72        61.22832
538.16        61.22272
538.60        61.30421
539.04        61.44191
539.47        61.57896
539.91        61.66889
540.35        61.68208
540.79        61.63666
541.22        61.55694
541.66        61.50247
542.10        61.48174
542.54        61.47968
542.97        61.46897
543.41        61.43634
543.85        61.37143
544.29        61.29562
544.72        61.21618
545.16        61.17629
545.60        61.17219
546.04        61.20192
546.47        61.26723
546.91        61.35387
547.35        61.45314
547.79        61.58517
548.22        61.71426
548.66        61.75182
549.10        61.75601
549.53        61.72647
549.97         61.6834
550.41        61.52253
550.84         61.3248
551.28        61.25621
551.72        61.27068
552.15        61.34223
552.59        61.53734
553.03        60.96992
553.46        61.46494
553.90        61.40324
554.34        61.31823
554.77        61.21688
555.21        61.16126
555.65        61.19917
556.08        61.30922
556.52        61.44777
556.96        61.55636
557.39        61.66385
557.83        61.70555
558.27         61.5046
558.70        61.04123
559.14        60.77348
559.57        60.71983
560.01        60.83906
560.45        61.05731
560.88        61.18567
561.32        61.21729
561.75        61.30822
562.19         61.4409
562.63        61.29602
563.06        60.96782
563.50        60.96308
563.93         61.1905
564.37         61.2613
564.80        61.18171
565.24        61.06509
565.68        60.81298
566.11        61.42322
566.55        60.68339
566.98        60.54428
567.42        60.49936
567.85        60.28144
568.29        60.61339
568.72        60.92592
569.16         61.3867
569.60        61.54689
570.03        61.52895
570.47        61.52192
570.90        61.64184
571.34        61.03138
571.77        61.23572
572.21        61.71582
572.64        61.45254
573.08        62.14586
573.51        61.36009
573.95        61.18843
574.38        61.26247
574.82         61.4866
