SpectraSmart Spectrum 2.9.0.0
--------- Device Information -----------
Spectrum Name :  反射率_0
Saving Time :  2024/04/26 22:36:57
Spectro-Module Model Name : SE2030-DUVN
Spectro-Module Serial Number : OS361AC55029948
Wavelength Start : 200
Wavelength End : 1025
Wavelength Unit : Wavelength(nm)
Spectrum Unit : Reflectance(%)
-----------Spectrum Setting ------------
Integration Time : 20ms
Average : 10
Boxcar : 0
Background removal :  enabled
linearity correction :  enabled
SC :  disabled
Intensity correction :  disabled
DWT denoise :  enabled
savitzky-golay :  disabled
FFT :  disabled
Running average :  disabled
Kalman :  disabled
High pass :  disabled
---------------BEGIN--------------------
Wavelength(nm)             Reflectance(%)
200.29               0
200.75        44.23562
201.21        43.60307
201.67         43.3265
202.13        42.94773
202.58        42.28885
203.04        41.77421
203.50        41.82946
203.96        43.25679
204.42        46.50029
204.88        51.22862
205.34         56.3405
205.80        60.07462
206.26        61.56437
206.72        60.80315
207.18        59.12543
207.64        57.83475
208.10        57.04271
208.55        57.00896
209.01        56.14681
209.47         52.1072
209.93        46.59813
210.39        42.60804
210.85        41.25252
211.31        42.99879
211.77         48.7165
212.23        62.40003
212.69        99.21058
213.14        172.4862
213.60        189.7666
214.06        153.8376
214.52         122.872
214.98        104.7738
215.44        92.20999
215.90        79.46097
216.36        68.31126
216.81        62.90651
217.27        64.78704
217.73          75.476
218.19        92.22397
218.65        97.24092
219.11        84.69824
219.57        66.77245
220.02        54.41452
220.48        52.26855
220.94        58.77401
221.40        74.02999
221.86         96.2009
222.32        107.4432
222.77        95.37544
223.23        73.16862
223.69        54.45777
224.15        46.37128
224.61        46.19764
225.06        49.29557
225.52        53.08156
225.98        54.98468
226.44         54.7492
226.90        53.54973
227.36        51.63104
227.81        49.31136
228.27        47.14688
228.73        44.96824
229.19         43.3611
229.65        43.02784
230.10        43.85778
230.56        45.65298
231.02        47.58453
231.48        48.27004
231.93         47.4567
232.39         45.9102
232.85        44.37204
233.31        43.88884
233.77        44.56102
234.22        45.98863
234.68        47.72078
235.14        49.19596
235.60        50.20626
236.05        51.01532
236.51        51.50805
236.97        51.46666
237.43        50.89867
237.88        49.84505
238.34         48.8396
238.80        49.05543
239.26        51.00492
239.71        55.22335
240.17        61.16977
240.63        66.90361
241.08        70.96848
241.54        72.53105
242.00        73.42698
242.46        78.34707
242.91        90.85744
243.37        113.2069
243.83        145.4105
244.28        170.6105
244.74        166.3213
245.20        134.9711
245.66        99.99591
246.11        81.19082
246.57        78.55326
247.03        85.41558
247.48        95.49567
247.94        97.94656
248.40         92.1562
248.85        84.19206
249.31        77.38844
249.77        72.43286
250.22         68.5113
250.68        64.09414
251.14        59.39247
251.59        56.82704
252.05        58.22487
252.51         63.1574
252.96        68.09572
253.42        70.04509
253.88        69.19205
254.33         66.3183
254.79        64.69552
255.25         66.9574
255.70        72.62907
256.16        80.56189
256.62        86.78473
257.07        85.62044
257.53        79.15136
257.99         71.2771
258.44        65.04929
258.90        63.10172
259.35         64.0717
259.81        66.73489
260.27        69.33022
260.72        69.77177
261.18        68.26982
261.63        65.58604
262.09        63.04647
262.55        61.44782
263.00        60.69509
263.46        60.51519
263.91        60.25515
264.37        59.47182
264.83        58.10482
265.28        56.40191
265.74        54.89314
266.19        53.87892
266.65        53.45933
267.11        53.36603
267.56        53.36107
268.02        53.09373
268.47        52.45889
268.93        51.61546
269.38        50.61021
269.84        49.57864
270.30        48.55708
270.75        47.48061
271.21        46.47215
271.66        45.65577
272.12        45.04276
272.57        44.58094
273.03        44.08222
273.48        43.22606
273.94        42.03271
274.39        40.59415
274.85        39.22275
275.31        38.19606
275.76        37.53391
276.22        37.16866
276.67        36.89121
277.13        36.50407
277.58        35.90661
278.04        35.20276
278.49        34.44757
278.95        33.84323
279.40        33.37206
279.86        33.03612
280.31        32.68298
280.77        32.21829
281.22         31.5898
281.68        30.90706
282.13        30.25931
282.59         29.8542
283.04        29.67789
283.50        29.68707
283.95        29.73175
284.41        29.59257
284.86        29.23124
285.32        28.76261
285.77        28.31941
286.22        28.14918
286.68        28.28395
287.13        28.58828
287.59        28.95273
288.04         29.1655
288.50        29.18925
288.95         29.0631
289.41        28.84746
289.86        28.55843
290.32         28.2683
290.77         27.9712
291.22        27.74047
291.68        27.66982
292.13        27.77501
292.59        28.06204
293.04        28.50936
293.50        29.09163
293.95        29.77568
294.40        30.56046
294.86        31.41895
295.31        32.30109
295.77        33.20205
296.22        34.11922
296.68         35.0717
297.13        36.07924
297.58        37.16277
298.04        38.32037
298.49         39.5629
298.95        40.92538
299.40        42.38528
299.85        43.91946
300.31        45.48246
300.76        46.98517
301.21        48.41633
301.67         49.8251
302.12        51.19807
302.58        52.59702
303.03        54.00716
303.48        55.44168
303.94        56.96186
304.39        58.60193
304.84        60.37793
305.30        62.27314
305.75        64.17142
306.20        65.97338
306.66        67.66359
307.11        69.24451
307.57        70.76231
308.02         72.1954
308.47        73.58102
308.93        74.92089
309.38        76.26025
309.83        77.77842
310.29        79.49295
310.74        81.33992
311.19        83.13584
311.65        84.54839
312.10         85.4827
312.55         86.0365
313.00        86.43224
313.46         87.0271
313.91        87.89611
314.36        88.96686
314.82        90.08852
315.27        91.02435
315.72        91.68415
316.18        92.16908
316.63         92.5591
317.08          93.022
317.53        93.60764
317.99        94.24733
318.44        94.88715
318.89        95.41886
319.35        95.80435
319.80        96.08062
320.25        96.29857
320.70        96.53869
321.16        96.82364
321.61        97.17184
322.06        97.51875
322.51        97.76698
322.97        97.88835
323.42        97.91917
323.87        97.99121
324.32        98.33934
324.78        98.96506
325.23        99.85842
325.68        100.7273
326.13        101.0948
326.59        100.8526
327.04        100.1814
327.49         99.4128
327.94        99.10153
328.39        99.39366
328.85        100.0961
329.30         101.073
329.75        101.8332
330.20        102.2006
330.66        102.2871
331.11        102.2718
331.56        102.3697
332.01        102.6628
332.46        103.0485
332.92        103.4158
333.37        103.7518
333.82        103.9815
334.27        104.1797
334.72          104.37
335.17         104.566
335.63        104.7799
336.08        105.0541
336.53        105.4501
336.98        106.1125
337.43        107.0483
337.88         108.184
338.34        109.3376
338.79        110.3202
339.24         110.994
339.69        111.4061
340.14        111.5883
340.59        111.6198
341.05        111.5863
341.50        111.4791
341.95        111.4059
342.40        111.5242
342.85        111.8757
343.30        112.4329
343.75        113.1177
344.20        113.7798
344.66        114.3585
345.11        114.8691
345.56        115.3012
346.01        115.6553
346.46        115.9466
346.91        116.1774
347.36        116.3666
347.81        116.5628
348.26        116.7706
348.72        116.9611
349.17        117.1546
349.62        117.4153
350.07        117.7393
350.52        118.1376
350.97        118.4226
351.42        118.2953
351.87        117.7333
352.32        116.8375
352.77        115.9775
353.22        115.6939
353.67        116.0747
354.13         116.958
354.58        117.9291
355.03        118.2526
355.48        117.7446
355.93        116.6189
356.38        115.3539
356.83        114.6736
357.28        114.7193
357.73        115.2479
358.18        115.8094
358.63         115.681
359.08        114.7039
359.53        113.1572
359.98        111.4649
360.43        110.2346
360.88         109.609
361.33        109.3843
361.78        109.2982
362.23        108.9443
362.68        108.2159
363.13        107.2702
363.58        106.2625
364.03        105.4117
364.48        104.7718
364.93        104.2375
365.38        103.7431
365.83        103.2085
366.28        102.6014
366.73        101.9659
367.18        101.2862
367.63        100.5208
368.08        99.68016
368.53         98.7858
368.98        97.90997
369.43        97.16851
369.88        96.58893
370.33        96.13842
370.78         95.7654
371.23        95.38383
371.68        94.95515
372.13        94.48723
372.58        93.98538
373.03         93.4608
373.48        92.91134
373.93        92.32421
374.38        91.67894
374.83        90.95727
375.28        90.17117
375.72        89.32595
376.17        88.52908
376.62        87.82578
377.07        87.24209
377.52         86.7879
377.97        86.41671
378.42        86.06061
378.87        85.69947
379.32         85.3148
379.77        85.00398
380.22        84.91364
380.67        85.03471
381.11        85.34035
381.56        85.52226
382.01        85.16761
382.46        84.23895
382.91        82.93912
383.36        81.65873
383.81        80.92934
384.26        80.83332
384.71         81.1874
385.15        81.74265
385.60        82.05541
386.05        81.98254
386.50        81.65668
386.95        81.15733
387.40        80.61588
387.85        80.10261
388.29        79.52317
388.74        79.03407
389.19        78.66008
389.64         78.3957
390.09        78.22898
390.54         78.0905
390.98        77.83681
391.43        77.49265
391.88        77.10232
392.33         76.7312
392.78        76.47198
393.23        76.33855
393.67        76.24759
394.12        76.24594
394.57        76.26279
395.02        76.26647
395.47        76.23837
395.91        76.15759
396.36        75.96252
396.81        75.68981
397.26        75.38313
397.71        75.04501
398.15        74.72394
398.60        74.53168
399.05        74.16092
399.50        73.75112
399.95        74.04878
400.39        74.81987
400.84         74.6861
401.29        73.72289
401.74         73.2542
402.18        73.35277
402.63        73.17844
403.08        72.77023
403.53        72.57461
403.97        72.59951
404.42         72.7126
404.87        72.81335
405.32        72.75031
405.76        72.49284
406.21        72.13924
406.66        71.78358
407.11        71.62342
407.55        71.73496
408.00        71.87837
408.45        72.01059
408.90        72.42425
409.34         72.8531
409.79        72.40303
410.24         71.3364
410.68        70.81112
411.13         70.9271
411.58        71.08038
412.03         71.1424
412.47        71.16653
412.92         71.0843
413.37        70.92248
413.81        70.75607
414.26        70.75966
414.71        70.93575
415.15        71.26028
415.60        71.61674
416.05        71.88294
416.49        72.01192
416.94        72.02242
417.39        71.97562
417.83        71.95161
418.28        71.98222
418.73        72.04845
419.17        72.11169
419.62        72.11357
420.07        72.03513
420.51        71.87982
420.96        71.74616
421.41        71.68217
421.85        71.66917
422.30        71.86979
422.74         72.1031
423.19        71.94695
423.64        71.48121
424.08        71.39003
424.53        71.68725
424.98        71.88106
425.42         71.9659
425.87        72.26106
426.31        72.66252
426.76        72.76617
427.21        72.60638
427.65        72.39099
428.10        72.14644
428.54        72.38861
428.99        72.21651
429.44        72.24562
429.88        72.29173
430.33        72.76462
430.77        73.41287
431.22        73.94351
431.66        74.18536
432.11        73.64801
432.56        72.61137
433.00        72.52809
433.45        73.54543
433.89        74.04796
434.34        73.45506
434.78        74.96991
435.23        74.21692
435.67        72.63679
436.12         73.1217
436.57        73.19527
437.01          73.831
437.46        74.04736
437.90        73.86655
438.35        73.57066
438.79        73.65337
439.24        73.71695
439.68        73.86295
440.13        74.18433
440.57        74.64632
441.02         74.7942
441.46        74.66075
441.91        75.18472
442.35        75.99626
442.80        75.75874
443.24         74.7029
443.69        74.61549
444.13        75.44275
444.58         75.7928
445.02        75.62452
445.47        75.74232
445.91        76.12439
446.36        76.39427
446.80        76.51493
447.24        76.58298
447.69         76.6325
448.13        76.69587
448.58        76.80307
449.02        76.91417
449.47        77.01005
449.91        77.03087
450.36          76.993
450.80        76.89047
451.25        76.80875
451.69        76.81543
452.13        76.93844
452.58        77.14309
453.02        77.34821
453.47        77.43275
453.91         77.3607
454.36        77.18977
454.80        76.99668
455.24         76.7699
455.69        76.52901
456.13        76.48694
456.58        76.72567
457.02        76.01736
457.46        76.18588
457.91        76.25256
458.35        76.51689
458.79        76.34365
459.24        75.80301
459.68        75.05152
460.13        74.35482
460.57        74.21716
461.01        74.81419
461.46        74.77975
461.90        75.74397
462.34        76.55138
462.79        76.71555
463.23        76.43707
463.68        76.55511
464.12         76.1796
464.56        75.65978
465.01        75.09689
465.45        74.55885
465.89        74.22045
466.34        74.05848
466.78        74.18061
467.22        74.55416
467.67        74.04893
468.11        74.14274
468.55         74.0714
468.99         74.2487
469.44        74.28865
469.88        74.20012
470.32        74.16624
470.77        74.17622
471.21         74.1702
471.65        74.13567
472.10        74.05144
472.54        73.99537
472.98        73.89051
473.42        73.77454
473.87        73.70938
474.31        73.61053
474.75         73.3728
475.20         73.1417
475.64        72.72147
476.08        73.24851
476.52        73.22311
476.97        72.87375
477.41        72.93349
477.85        73.55698
478.29         72.5929
478.74        72.62013
479.18        73.70029
479.62        73.22342
480.06        73.38328
480.50        73.14595
480.95        73.05049
481.39        73.16485
481.83        72.50471
482.27        72.57474
482.72        73.25907
483.16        72.83692
483.60        72.94591
484.04        72.93468
484.48        73.11682
484.93        73.16829
485.37        72.76093
485.81        72.11485
486.25        71.75025
486.69        70.66882
487.14        73.44671
487.58         74.4413
488.02        73.45493
488.46        72.18727
488.90        72.27328
489.34        73.23238
489.79        74.60997
490.23        73.84216
490.67        73.21191
491.11        72.44306
491.55        72.25405
491.99        72.60163
492.43        72.54966
492.88        72.10367
493.32        71.94782
493.76        72.11095
494.20         72.2526
494.64        72.35109
495.08        72.49256
495.52        72.61301
495.96        72.68281
496.41         72.6721
496.85        72.42229
497.29        71.97188
497.73        72.08199
498.17        71.81763
498.61        71.90649
499.05        72.02441
499.49         72.0779
499.93        71.81301
500.37        72.00867
500.82        72.54417
501.26        72.09981
501.70        71.94234
502.14        71.91822
502.58         72.3478
503.02        72.54355
503.46        72.48098
503.90        72.52097
504.34        72.61668
504.78        72.54999
505.22        72.30994
505.66        71.97874
506.10        71.67302
506.54        71.49786
506.98        71.47238
507.42        71.74971
507.86        72.06505
508.30        71.95892
508.74         72.1103
509.18        71.94421
509.62        71.75553
510.06        71.63124
510.50        71.61115
510.94        71.64845
511.38        71.71206
511.82        71.77619
512.26         71.8259
512.70        71.87883
513.14        71.93267
513.58        71.97775
514.02        72.01396
514.46        72.03583
514.90        72.05765
515.34        72.10871
515.78        72.18811
516.22         72.2794
516.66        72.35546
517.10        72.37237
517.54        72.32264
517.98        72.23002
518.42        72.10754
518.86         71.9756
519.30        71.85065
519.74        71.72934
520.18        71.64691
520.62        71.65567
521.06        71.75896
521.50        71.94265
521.93        72.14476
522.37        72.23813
522.81        72.20438
523.25        72.07522
523.69        71.92033
524.13        71.85416
524.57        71.89799
525.01        72.00387
525.45         72.1213
525.89        72.16795
526.32        72.11371
526.76        72.01775
527.20        71.87981
527.64        71.70409
528.08        71.50961
528.52        71.29253
528.96        71.12707
529.40        71.13049
529.83        71.30816
530.27        71.62747
530.71        71.95539
531.15        72.08437
531.59        71.96925
532.03        71.67122
532.46        71.30392
532.90        71.09544
533.34        71.08251
533.78        71.17949
534.22        71.31195
534.66         71.3847
535.09        71.30051
535.53        71.21893
535.97        70.74282
536.41         70.5667
536.85        70.58865
537.28        70.66399
537.72        70.76472
538.16        70.91294
538.60        71.08806
539.04        71.27785
539.47        71.42907
539.91        71.50594
540.35        71.48472
540.79        71.37642
541.22        71.22772
541.66        71.14024
542.10        71.13094
542.54        71.18106
542.97        71.23031
543.41        71.21484
543.85        71.11348
544.29        70.96214
544.72        70.80844
545.16        70.76599
545.60        70.84043
546.04        71.00172
546.47        71.20016
546.91        71.35597
547.35        71.43982
547.79        71.45459
548.22        71.42041
548.66        71.41457
549.10        71.49381
549.53         71.4678
549.97         71.3723
550.41        71.22591
550.84        71.09382
551.28        71.16615
551.72        71.36877
552.15        71.41083
552.59        71.30502
553.03        71.09216
553.46        71.13593
553.90        71.09076
554.34        71.04957
554.77        71.08941
555.21        71.21836
555.65        71.15157
556.08        71.30325
556.52        71.28394
556.96        71.21552
557.39         71.2588
557.83         71.3662
558.27        71.13057
558.70        70.64365
559.14        70.49074
559.57        70.64905
560.01        70.73858
560.45        70.74377
560.88         70.8333
561.32        71.00677
561.75        71.22649
562.19        71.44534
562.63        71.31008
563.06        70.92025
563.50        71.01897
563.93        71.24964
564.37        71.31263
564.80        71.14922
565.24        70.91552
565.68        70.52351
566.11        71.22032
566.55        70.46027
566.98        70.37666
567.42        70.30346
567.85         70.3521
568.29           70.54
568.72        70.79609
569.16         71.1125
569.60        71.36973
570.03         71.3316
570.47        71.39914
570.90        71.55708
571.34        71.14329
571.77        71.19171
572.21        71.81277
572.64        71.24923
573.08        71.71787
573.51        71.09209
573.95        70.95403
574.38        71.15063
574.82        70.93337
