SpectraSmart Spectrum 2.9.0.0
--------- Device Information -----------
Spectrum Name :  反射率_0
Saving Time :  2024/04/26 22:33:52
Spectro-Module Model Name : SE2030-DUVN
Spectro-Module Serial Number : OS361AC55029948
Wavelength Start : 200
Wavelength End : 1025
Wavelength Unit : Wavelength(nm)
Spectrum Unit : Reflectance(%)
-----------Spectrum Setting ------------
Integration Time : 20ms
Average : 10
Boxcar : 0
Background removal :  enabled
linearity correction :  enabled
SC :  disabled
Intensity correction :  disabled
DWT denoise :  enabled
savitzky-golay :  disabled
FFT :  disabled
Running average :  disabled
Kalman :  disabled
High pass :  disabled
---------------BEGIN--------------------
Wavelength(nm)             Reflectance(%)
200.29               0
200.75        41.73851
201.21        37.86543
201.67        35.10014
202.13        34.94244
202.58        37.45819
203.04        42.85762
203.50        51.03024
203.96        59.46714
204.42        65.70132
204.88        69.50921
205.34        70.57225
205.80         70.0368
206.26        68.58504
206.72         65.4369
207.18        62.33755
207.64        60.78278
208.10        60.74656
208.55        63.22948
209.01        65.63897
209.47        61.10158
209.93        50.44612
210.39        39.84043
210.85        33.73825
211.31        33.70032
211.77        40.10283
212.23        58.21989
212.69        105.0235
213.14        180.0585
213.60        169.8736
214.06        111.3829
214.52        74.44949
214.98        60.25015
215.44        57.04394
215.90        57.95422
216.36        60.97813
216.81        63.90272
217.27        66.31522
217.73        70.77815
218.19        76.29142
218.65        76.32121
219.11        70.26501
219.57        62.21724
220.02         57.9182
220.48        61.31923
220.94        72.29288
221.40        92.53697
221.86        120.6908
222.32        136.1238
222.77        123.3726
223.23        97.46022
223.69        73.72991
224.15        60.21473
224.61         54.7274
225.06         52.8179
225.52        52.98161
225.98         53.6727
226.44        54.37514
226.90        55.72356
227.36        56.68684
227.81        55.45354
228.27        52.22458
228.73        47.63399
229.19        43.75401
229.65        43.00644
230.10        45.32013
230.56        49.80645
231.02        54.33915
231.48        55.51216
231.93        52.82263
232.39        48.02774
232.85        43.17825
233.31        40.87185
233.77        41.40058
234.22        43.83393
234.68         46.9315
235.14        48.88513
235.60        49.11725
236.05        48.18988
236.51        46.66591
236.97         45.7306
237.43        45.92101
237.88        46.87589
238.34        48.20558
238.80        49.56678
239.26        50.91249
239.71        52.88599
240.17        55.40572
240.63        58.37706
241.08        61.72728
241.54        64.68748
242.00        68.30158
242.46         75.3538
242.91        88.53691
243.37        110.3188
243.83        141.2095
244.28        167.0238
244.74          167.01
245.20        141.0158
245.66        109.6486
246.11        91.42181
246.57        86.77596
247.03        90.14846
247.48        95.40527
247.94        92.77538
248.40        83.30365
248.85        73.09795
249.31        65.45858
249.77        61.21036
250.22         59.4826
250.68        59.03628
251.14        59.87725
251.59        62.09105
252.05        65.19418
252.51        68.98234
252.96        71.28541
253.42        70.73512
253.88        67.94624
254.33        63.65022
254.79         60.7448
255.25        61.36519
255.70        65.15002
256.16        71.18375
256.62         76.5423
257.07        76.87878
257.53         73.3289
257.99        68.41193
258.44        64.29355
258.90        63.11446
259.35        63.80893
259.81        65.62782
260.27        67.08569
260.72        66.46922
261.18        64.14935
261.63        60.81868
262.09        57.86724
262.55        56.18759
263.00        55.63027
263.46        55.84895
263.91        56.01019
264.37        55.39343
264.83        53.92763
265.28        51.95519
265.74        50.17395
266.19        49.13173
266.65        48.93871
267.11        49.23926
267.56        49.62485
268.02        49.47064
268.47        48.62332
268.93         47.3526
269.38         45.8848
269.84        44.61518
270.30        43.64693
270.75        42.83086
271.21        42.17714
271.66        41.64861
272.12        41.20386
272.57          40.839
273.03        40.41126
273.48        39.66806
273.94        38.64008
274.39        37.39063
274.85        36.18156
275.31         35.2395
275.76          34.587
276.22        34.17936
276.67        33.87204
277.13        33.54901
277.58        33.11626
278.04        32.63156
278.49        32.08442
278.95        31.57463
279.40        31.07094
279.86        30.61933
280.31        30.11274
280.77        29.51007
281.22        28.79014
281.68        28.04984
282.13        27.39178
282.59        27.03362
283.04        26.95959
283.50        27.11355
283.95        27.32929
284.41        27.35248
284.86        27.12513
285.32        26.76064
285.77        26.37987
286.22        26.21468
286.68        26.30475
287.13        26.52929
287.59        26.81012
288.04        26.98751
288.50        27.03469
288.95        26.97623
289.41        26.85518
289.86        26.66456
290.32        26.46224
290.77        26.24833
291.22        26.08456
291.68        26.04792
292.13        26.15731
292.59        26.42744
293.04        26.85545
293.50        27.44567
293.95        28.17557
294.40        29.03629
294.86         29.9997
295.31        31.01332
295.77        32.06394
296.22        33.14487
296.68        34.25789
297.13        35.39688
297.58        36.57942
298.04        37.81586
298.49        39.13055
298.95        40.57909
299.40        42.15174
299.85        43.82494
300.31        45.56243
300.76        47.28905
301.21        48.98706
301.67        50.68756
302.12        52.35736
302.58         54.0312
303.03        55.67764
303.48        57.31332
303.94        58.98644
304.39         60.7099
304.84        62.51334
305.30        64.40535
305.75        66.30644
306.20        68.17496
306.66        70.00784
307.11        71.77817
307.57        73.52715
308.02        75.22186
308.47        76.87659
308.93        78.48379
309.38        80.03033
309.83        81.61206
310.29        83.24392
310.74        84.90274
311.19        86.47667
311.65        87.75072
312.10        88.67127
312.55         89.3061
313.00        89.86285
313.46        90.67387
313.91         91.7881
314.36        93.12814
314.82        94.49796
315.27        95.58627
315.72        96.28074
316.18        96.69989
316.63        96.94976
317.08        97.24941
317.53        97.67361
317.99        98.14857
318.44        98.64674
318.89        99.09602
319.35        99.46772
319.80        99.80169
320.25        100.1119
320.70        100.4121
321.16        100.7084
321.61        101.0309
322.06        101.3552
322.51        101.6567
322.97        101.9139
323.42        102.1257
323.87        102.3683
324.32        102.7914
324.78        103.3746
325.23        104.1494
325.68        104.8468
326.13        105.0322
326.59        104.6328
327.04        103.8265
327.49        102.9933
327.94        102.7643
328.39        103.2846
328.85        104.3258
329.30        105.6681
329.75          106.65
330.20        107.0356
330.66        106.9848
331.11        106.7173
331.56        106.5189
332.01        106.5176
332.46        106.5978
332.92        106.7275
333.37        107.0334
333.82        107.4596
334.27        108.0447
334.72        108.6809
335.17        109.1509
335.63        109.4005
336.08        109.5346
336.53        109.6964
336.98        110.1823
337.43        111.0556
337.88        112.1939
338.34        113.4159
338.79        114.5376
339.24        115.4041
339.69        116.0736
340.14        116.5085
340.59        116.6648
341.05        116.6085
341.50        116.3609
341.95        116.1214
342.40        116.1998
342.85        116.6664
343.30        117.4374
343.75        118.3609
344.20        119.1634
344.66        119.7465
345.11        120.1763
345.56        120.4658
346.01        120.6477
346.46        120.7703
346.91        120.8377
347.36        120.9215
347.81        121.1534
348.26        121.5442
348.72        122.0306
349.17        122.5685
349.62        123.1172
350.07        123.6325
350.52        124.1443
350.97        124.4654
351.42        124.3052
351.87          123.66
352.32        122.6369
352.77        121.6421
353.22        121.2757
353.67        121.6327
354.13        122.5269
354.58        123.5373
355.03        123.9044
355.48        123.4351
355.93        122.3725
356.38        121.1342
356.83        120.3502
357.28        120.1619
357.73        120.3406
358.18         120.604
358.63        120.5095
359.08        119.9273
359.53        119.0264
359.98        117.9629
360.43        116.9402
360.88        116.0281
361.33        115.1625
361.78        114.3131
362.23        113.4533
362.68         112.587
363.13        111.7514
363.58        110.9785
364.03        110.2929
364.48        109.6817
364.93        109.1118
365.38        108.5364
365.83        107.8938
366.28         107.174
366.73        106.4081
367.18        105.6126
367.63        104.8108
368.08        104.0216
368.53        103.2448
368.98         102.526
369.43        101.9324
369.88        101.4681
370.33        101.1091
370.78        100.7781
371.23        100.3503
371.68        99.78759
372.13        99.11011
372.58        98.38071
373.03        97.70646
373.48        97.10667
373.93        96.54147
374.38        95.94633
374.83        95.22532
375.28        94.37065
375.72        93.42166
376.17        92.50124
376.62        91.66996
377.07        90.96903
377.52         90.4021
377.97        89.95905
378.42        89.63422
378.87        89.40711
379.32        89.22722
379.77        89.12753
380.22        89.16183
380.67        89.29607
381.11         89.5259
381.56        89.56765
382.01        89.06343
382.46        88.00852
382.91        86.60534
383.36        85.24116
383.81        84.43972
384.26        84.27694
384.71        84.56358
385.15        85.07657
385.60        85.40894
386.05        85.41444
386.50        85.21326
386.95        84.79993
387.40        84.17832
387.85        83.41919
388.29        82.49049
388.74        81.67989
389.19        81.18256
389.64        81.01751
390.09        81.10857
390.54        81.28979
390.98        81.25391
391.43         80.9656
391.88        80.51435
392.33        80.01112
392.78        79.58611
393.23        79.27506
393.67         79.0689
394.12        78.99977
394.57        78.78241
395.02         78.4817
395.47        78.52233
395.91        78.81866
396.36        78.80358
396.81        78.45969
397.26        78.08842
397.71        77.74758
398.15        77.41725
398.60         77.2155
399.05        76.96834
399.50        76.72636
399.95        76.83912
400.39        77.20001
400.84        77.08534
401.29         76.5229
401.74        76.26155
402.18        76.27628
402.63        75.83632
403.08        75.10402
403.53        74.79451
403.97        74.95078
404.42        75.26393
404.87        75.56308
405.32         75.6312
405.76        75.38331
406.21        75.02261
406.66        74.65182
407.11        74.19343
407.55        73.83476
408.00        74.05885
408.45        74.70362
408.90        74.90357
409.34        74.53809
409.79        74.06767
410.24        73.66439
410.68        73.39117
411.13         73.3126
411.58        73.39954
412.03        73.53271
412.47        73.51989
412.92        73.29549
413.37        72.95486
413.81        72.62794
414.26        72.57307
414.71        72.80421
415.15        73.26629
415.60        73.78353
416.05        74.13428
416.49        74.23879
416.94        74.14397
417.39        73.96212
417.83        73.85229
418.28        73.87314
418.73        73.98783
419.17        74.12683
419.62        74.18325
420.07        74.11381
420.51        73.92551
420.96        73.75726
421.41        73.67899
421.85        73.67168
422.30         73.9948
422.74        74.36752
423.19        73.99827
423.64        73.05589
424.08        72.77885
424.53        73.22083
424.98        73.44858
425.42        73.43608
425.87        73.87525
426.31        74.58489
426.76        74.60883
427.21        74.04001
427.65        73.79544
428.10        73.89733
428.54          73.853
428.99        73.71803
429.44        73.49046
429.88        73.36163
430.33        73.96672
430.77         74.9557
431.22        75.56583
431.66        75.58939
432.11        74.90352
432.56         73.8476
433.00        73.55701
433.45        74.31969
433.89        75.11755
434.34        75.48317
434.78        76.94861
435.23        75.67655
435.67        73.60332
436.12         74.0019
436.57         74.2846
437.01        75.30556
437.46        75.65924
437.90        75.32835
438.35        74.57529
438.79        74.64418
439.24        74.57459
439.68         74.6828
440.13        75.12251
440.57        75.77567
441.02        75.91096
441.46        75.59846
441.91        76.06176
442.35        76.94293
442.80         76.8371
443.24        75.91364
443.69        75.75924
444.13        76.36945
444.58        76.67919
445.02        76.64734
445.47        76.81969
445.91        77.17943
446.36        77.50542
446.80        77.75687
447.24        77.97558
447.69        78.14607
448.13        78.21366
448.58        78.21336
449.02        78.19511
449.47        78.19189
449.91         78.1588
450.36        78.12955
450.80         78.1219
451.25        78.15671
451.69        78.17408
452.13        78.18701
452.58          78.208
453.02        78.23102
453.47        78.25365
453.91        78.25396
454.36        78.23003
454.80        78.18567
455.24        77.99642
455.69        77.64754
456.13        77.47815
456.58        77.53362
457.02        76.65223
457.46        75.92184
457.91         76.2613
458.35        77.15331
458.79        77.24657
459.24        76.40153
459.68        75.43885
460.13        74.74452
460.57        74.41285
461.01        74.55496
461.46        75.12158
461.90        75.88884
462.34        76.22165
462.79        76.08837
463.23        76.12367
463.68         76.2235
464.12        75.99655
464.56        75.41824
465.01        74.42857
465.45        73.38081
465.89        73.34747
466.34        74.06123
466.78        74.52953
467.22        74.69492
467.67         73.5888
468.11        73.73737
468.55        73.75001
468.99        74.21198
469.44        74.24394
469.88        73.84138
470.32        73.55546
470.77        73.44372
471.21        73.36465
471.65        73.30827
472.10        73.31821
472.54        73.37582
472.98        73.36555
473.42        73.24559
473.87        73.32561
474.31        73.44495
474.75        72.80765
475.20         71.7426
475.64        71.68092
476.08        72.50411
476.52         72.7134
476.97        72.21376
477.41        72.11098
477.85        72.31316
478.29        71.98275
478.74        72.36732
479.18        72.70583
479.62          72.542
480.06        72.54554
480.50        72.44616
480.95        72.35328
481.39        72.30431
481.83        71.95481
482.27         71.7326
482.72        72.35101
483.16        71.89133
483.60        71.92149
484.04        71.85178
484.48        72.03468
484.93        72.15601
485.37         71.7374
485.81        71.46837
486.25        70.67842
486.69        70.41417
487.14        72.91429
487.58         73.2179
488.02        72.59564
488.46        71.26632
488.90        71.17831
489.34        72.71461
489.79        73.39327
490.23        72.90709
490.67        72.17222
491.11        71.45197
491.55        71.19699
491.99        71.39795
492.43        71.28594
492.88        70.85522
493.32        70.92877
493.76         71.1143
494.20        71.32509
494.64        71.39846
495.08        71.43455
495.52        71.44174
495.96        71.43179
496.41        71.42059
496.85        71.45802
497.29        71.37548
497.73        71.32175
498.17        70.48155
498.61        70.15011
499.05        70.15359
499.49        70.57648
499.93        70.98065
500.37        71.12592
500.82        70.93269
501.26        70.84094
501.70        70.89784
502.14        70.92892
502.58        70.93972
503.02        70.95293
503.46        70.97379
503.90        71.04816
504.34        71.15229
504.78         71.1087
505.22        70.90151
505.66        70.62183
506.10        70.37117
506.54        70.19579
506.98        70.10429
507.42        70.46941
507.86         70.4931
508.30        70.61689
508.74        70.59014
509.18        70.47389
509.62        70.31717
510.06        70.21343
510.50        70.19843
510.94        70.23521
511.38        70.30541
511.82        70.38145
512.26        70.45242
512.70        70.52566
513.14        70.58838
513.58        70.67207
514.02        70.78344
514.46        70.80633
514.90        70.71454
515.34        71.01421
515.78        70.84244
516.22        70.88522
516.66        70.87616
517.10        70.81926
517.54        70.71151
517.98        70.57777
518.42        70.44383
518.86        70.32484
519.30        70.23441
519.74        70.16938
520.18         70.1402
520.62        70.15925
521.06        70.22536
521.50        70.33739
521.93        70.46599
522.37        70.54089
522.81        70.55406
523.25        70.51284
523.69        70.46389
524.13        70.47592
524.57        70.55448
525.01        70.68643
525.45        70.81502
525.89        70.74904
526.32         70.6228
526.76          70.371
527.20        70.08868
527.64        69.85056
528.08        69.68879
528.52         69.5807
528.96        69.53529
529.40        69.56813
529.83         69.6664
530.27        69.83153
530.71        70.00168
531.15        70.08466
531.59        70.05923
532.03        69.94053
532.46        69.77663
532.90        69.69855
533.34        69.71952
533.78        69.76415
534.22        69.78072
534.66        69.77493
535.09         69.6832
535.53        69.38052
535.97        68.95096
536.41        68.70232
536.85        68.67562
537.28        68.72261
537.72        68.82385
538.16        68.99669
538.60        69.21274
539.04        69.46572
539.47        69.68504
539.91        69.79902
540.35        69.78436
540.79        69.67992
541.22        69.54124
541.66        69.46478
542.10        69.46907
542.54        69.54038
542.97        69.60644
543.41        69.57829
543.85        69.43097
544.29        69.21113
544.72         68.9763
545.16        68.85128
545.60        68.85088
546.04        68.94867
546.47        69.09715
546.91        69.22201
547.35        69.29408
547.79        69.30543
548.22        69.28636
548.66        69.33675
549.10        69.50325
549.53        69.57642
549.97        69.55663
550.41        69.40813
550.84        69.17258
551.28        69.10196
551.72        69.20873
552.15        69.10522
552.59        68.97583
553.03         69.2156
553.46        69.26372
553.90        69.32273
554.34        69.21624
554.77        69.18067
555.21        68.99877
555.65        69.01213
556.08        69.14033
556.52        69.33328
556.96        69.49392
557.39        69.55483
557.83        69.49531
558.27        69.21134
558.70        68.78673
559.14        68.57185
559.57        68.56036
560.01        68.47868
560.45        68.37162
560.88        68.53493
561.32        68.93201
561.75         69.2683
562.19        69.47944
562.63        69.45731
563.06        69.26456
563.50        69.25743
563.93         69.3542
564.37        69.28893
564.80        69.09805
565.24        68.85078
565.68        68.44563
566.11        69.09044
566.55        68.32691
566.98         68.2221
567.42        68.16251
567.85        68.36759
568.29        68.76913
568.72        69.06396
569.16        69.33332
569.60        69.39549
570.03        69.44865
570.47        69.68504
570.90        70.23895
571.34         68.9985
571.77        69.46578
572.21        69.74712
572.64        69.62642
573.08        69.79663
573.51        69.17506
573.95        69.02471
574.38        69.28576
574.82        69.57439
