SpectraSmart Spectrum 2.9.0.0
--------- Device Information -----------
Spectrum Name :  反射率_0
Saving Time :  2024/04/26 22:45:54
Spectro-Module Model Name : SE2030-DUVN
Spectro-Module Serial Number : OS361AC55029948
Wavelength Start : 200
Wavelength End : 1025
Wavelength Unit : Wavelength(nm)
Spectrum Unit : Reflectance(%)
-----------Spectrum Setting ------------
Integration Time : 20ms
Average : 10
Boxcar : 0
Background removal :  enabled
linearity correction :  enabled
SC :  disabled
Intensity correction :  disabled
DWT denoise :  enabled
savitzky-golay :  disabled
FFT :  disabled
Running average :  disabled
Kalman :  disabled
High pass :  disabled
---------------BEGIN--------------------
Wavelength(nm)             Reflectance(%)
200.29               0
200.75        44.78323
201.21        46.06639
201.67        47.47226
202.13         48.6192
202.58        49.48197
203.04        50.56457
203.50        51.96262
203.96         53.3531
204.42        54.44215
204.88        55.06054
205.34        55.17218
205.80        55.17217
206.26        55.08528
206.72         54.5736
207.18        54.02028
207.64        53.70061
208.10         53.6818
208.55        54.68653
209.01         55.4202
209.47        53.35981
209.93         49.1255
210.39        45.00604
210.85         43.2721
211.31        45.42635
211.77        52.63897
212.23        70.30348
212.69        114.2073
213.14        183.3808
213.60        171.7027
214.06        115.9608
214.52        81.02489
214.98        67.18049
215.44        63.22918
215.90        62.83299
216.36        64.12557
216.81        64.92648
217.27        64.74188
217.73         65.5963
218.19        66.22997
218.65        62.47785
219.11        55.92229
219.57        49.52523
220.02        47.31087
220.48        52.36565
220.94        64.91628
221.40        87.23614
221.86        117.8889
222.32        134.6474
222.77         120.688
223.23        91.88774
223.69        65.45236
224.15        50.45632
224.61        44.48052
225.06        42.86221
225.52        43.21307
225.98        43.13287
226.44        42.19487
226.90        41.28544
227.36        40.58158
227.81         40.2496
228.27         40.4096
228.73        40.53212
229.19        40.86031
229.65        41.86624
230.10        43.45721
230.56        45.52858
231.02        47.14965
231.48        46.86041
231.93        44.58257
232.39        41.25159
232.85        38.11724
233.31        36.79229
233.77        37.42022
234.22        39.52584
234.68        42.13432
235.14        43.79525
235.60         44.1181
236.05        43.54487
236.51        42.78866
236.97        43.28247
237.43        45.56084
237.88         49.1671
238.34         53.4069
238.80        57.59789
239.26        61.66094
239.71        66.34377
240.17        71.58401
240.63        77.18645
241.08        82.84904
241.54        87.63486
242.00        92.32389
242.46        99.47945
242.91        111.8898
243.37        131.2598
243.83        159.5957
244.28         188.783
244.74        200.9859
245.20        191.3895
245.66        171.5487
246.11        154.3513
246.57        141.9264
247.03        131.5907
247.48        120.1286
247.94        105.4387
248.40        91.64433
248.85        81.35335
249.31        75.72921
249.77        74.37375
250.22        76.28874
250.68        81.00184
251.14        88.02879
251.59         93.9869
252.05         96.0957
252.51        95.68114
252.96        92.44782
253.42        87.06974
253.88        80.66534
254.33         73.6282
254.79        69.33559
255.25        70.33546
255.70         75.8063
256.16        84.22533
256.62        91.72421
257.07        92.44147
257.53        87.79913
257.99        81.42431
258.44        75.73711
258.90        73.02381
259.35         72.2302
259.81        72.58815
260.27        73.15663
260.72         72.9812
261.18        72.18636
261.63        70.82373
262.09        69.52028
262.55        68.31998
263.00         67.1325
263.46        66.09721
263.91        64.83401
264.37        63.27859
264.83        61.45335
265.28        59.44664
265.74        57.76368
266.19        56.67499
266.65        56.24269
267.11        56.20809
267.56        56.23472
268.02        55.80498
268.47        54.78805
268.93        53.39221
269.38        51.79335
269.84        50.33081
270.30        49.09505
270.75        47.98233
271.21        47.01621
271.66        46.16012
272.12        45.39576
272.57         44.7234
273.03        44.07344
273.48        43.30555
273.94        42.45227
274.39        41.50776
274.85        40.62363
275.31        39.86714
275.76        39.22291
276.22        38.69669
276.67        38.18922
277.13         37.6683
277.58        37.06006
278.04        36.40477
278.49        35.68367
278.95        34.99646
279.40        34.31229
279.86         33.6991
280.31        33.05099
280.77         32.3307
281.22         31.5149
281.68        30.70476
282.13        30.00007
282.59        29.62354
283.04        29.55532
283.50        29.73963
283.95        30.00179
284.41        30.07836
284.86        29.90253
285.32        29.58255
285.77        29.24496
286.22        29.13878
286.68        29.30411
287.13        29.61415
287.59        29.96534
288.04        30.15366
288.50        30.15583
288.95        30.01758
289.41         29.8331
289.86        29.66127
290.32        29.57621
290.77        29.55314
291.22        29.61748
291.68        29.79192
292.13        30.07641
292.59        30.49789
293.04        31.07582
293.50         31.8502
293.95        32.80585
294.40        33.92808
294.86        35.15192
295.31        36.36775
295.77        37.55893
296.22        38.73431
296.68        39.96828
297.13        41.36321
297.58        42.95006
298.04        44.69598
298.49        46.52134
298.95        48.32383
299.40        50.05142
299.85        51.72556
300.31        53.40198
300.76        55.14188
301.21        56.96921
301.67        58.88608
302.12        60.78646
302.58        62.60389
303.03        64.28735
303.48        65.89857
303.94        67.57413
304.39        69.44494
304.84         71.5508
305.30        73.83582
305.75        76.11565
306.20        78.20415
306.66        80.06935
307.11        81.73976
307.57        83.31217
308.02        84.82217
308.47        86.32545
308.93         87.8009
309.38        89.26834
309.83        90.88344
310.29        92.66219
310.74        94.56547
311.19        96.40501
311.65        97.83467
312.10        98.76244
312.55        99.28119
313.00        99.67302
313.46        100.3893
313.91        101.5036
314.36        102.9111
314.82        104.3425
315.27        105.3716
315.72         105.867
316.18        105.9971
316.63        105.9684
317.08         106.151
317.53        106.6508
317.99        107.3472
318.44        108.1099
318.89        108.6979
319.35        109.0355
319.80        109.2077
320.25        109.3214
320.70        109.5424
321.16        109.9103
321.61        110.4055
322.06        110.9122
322.51        111.2594
322.97         111.392
323.42        111.3717
323.87        111.3593
324.32        111.6361
324.78         112.221
325.23        113.1095
325.68        113.9911
326.13        114.3633
326.59        114.1101
327.04         113.414
327.49        112.6485
327.94        112.4382
328.39        112.9341
328.85        113.9192
329.30         115.162
329.75        115.9705
330.20        116.1247
330.66        115.7957
331.11        115.3358
331.56        115.2293
332.01        115.6289
332.46        116.3586
332.92        117.1608
333.37        117.7806
333.82        118.0497
334.27        118.1135
334.72         118.088
335.17        118.1383
335.63        118.3326
336.08        118.6813
336.53        119.1952
336.98        119.9486
337.43        120.9245
337.88        122.0625
338.34        123.2467
338.79        124.4055
339.24         125.405
339.69        126.2513
340.14        126.8126
340.59        126.9119
341.05        126.6003
341.50        125.9592
341.95        125.3182
342.40        125.1761
342.85        125.6448
343.30         126.584
343.75        127.7384
344.20        128.6595
344.66        129.2012
345.11        129.4895
345.56        129.6042
346.01        129.6838
346.46        129.8073
346.91        129.9321
347.36        130.1064
347.81        130.4331
348.26        130.9012
348.72        131.4521
349.17         132.016
349.62        132.5122
350.07        132.8912
350.52        133.1959
350.97         133.266
351.42        132.8613
351.87        132.0009
352.32        130.7873
352.77        129.6347
353.22        129.1425
353.67        129.4061
354.13        130.2527
354.58        131.2371
355.03        131.5572
355.48        131.0074
355.93        129.8195
356.38        128.4745
356.83         127.704
357.28        127.6517
357.73        128.0578
358.18        128.4971
358.63        128.2941
359.08         127.294
359.53        125.7656
359.98        124.0684
360.43        122.7098
360.88        121.8171
361.33        121.2148
361.78        120.7292
362.23        120.0992
362.68        119.2508
363.13        118.2999
363.58        117.3069
364.03        116.3366
364.48        115.4147
364.93        114.4965
365.38        113.6087
365.83         112.822
366.28        112.1437
366.73        111.5564
367.18          110.99
367.63        110.3205
368.08        109.5193
368.53        108.6294
368.98        107.6993
369.43        106.8065
369.88        105.9826
370.33        105.2069
370.78         104.489
371.23        103.8526
371.68        103.2935
372.13         102.797
372.58        102.3291
373.03        101.8273
373.48        101.2617
373.93        100.6375
374.38        99.93671
374.83        99.14735
375.28        98.28429
375.72        97.34061
376.17        96.43725
376.62        95.63471
377.07        94.96535
377.52         94.4446
377.97        94.01221
378.42        93.57813
378.87        93.11839
379.32         92.6132
379.77         92.1965
380.22         92.0675
380.67        92.22015
381.11        92.61923
381.56        92.87547
382.01        92.44633
382.46        91.28268
382.91         89.6468
383.36        88.05288
383.81        87.20415
384.26        87.20682
384.71        87.81253
385.15         88.6745
385.60        89.18199
386.05        89.13312
386.50        88.70606
386.95         88.0202
387.40        87.27187
387.85        86.56577
388.29        85.79629
388.74        85.13683
389.19        84.61349
389.64        84.22594
390.09        83.97414
390.54        83.79443
390.98        83.54504
391.43        83.23438
391.88        82.88086
392.33        82.54404
392.78        82.26746
393.23        82.05062
393.67         81.9552
394.12        81.97295
394.57        81.64231
395.02        81.08109
395.47        80.97392
395.91        81.25959
396.36        81.19702
396.81        80.77968
397.26        80.43447
397.71        80.18616
398.15        79.91108
398.60         79.7164
399.05        79.41396
399.50        79.07597
399.95        79.17472
400.39         79.5691
400.84         79.3019
401.29        78.43588
401.74        78.01247
402.18        78.00915
402.63          77.463
403.08         76.5569
403.53        76.18401
403.97         76.3805
404.42        76.77265
404.87        77.17012
405.32        77.27528
405.76        76.98651
406.21        76.84934
406.66         76.3289
407.11        75.99281
407.55        75.81642
408.00        75.90028
408.45        76.19672
408.90        76.67437
409.34        77.05554
409.79         76.6692
410.24        75.73575
410.68        75.22501
411.13        75.22446
411.58        75.19273
412.03        75.03584
412.47        74.87177
412.92          74.663
413.37        74.41506
413.81        74.20271
414.26        74.20161
414.71        74.40359
415.15        74.79356
415.60        75.21056
416.05        75.45554
416.49        75.47086
416.94        75.29711
417.39        75.07332
417.83        75.00463
418.28        75.14323
418.73        75.42131
419.17        75.72202
419.62        75.86167
420.07        75.78146
420.51        75.52174
420.96        75.21523
421.41        74.96774
421.85        74.79205
422.30        74.82827
422.74         74.9031
423.19        74.66088
423.64        74.15217
424.08        73.93461
424.53        74.07056
424.98        74.24134
425.42        74.44765
425.87         74.9628
426.31        75.58533
426.76        75.63565
427.21        75.15754
427.65        74.75139
428.10        74.55338
428.54        74.47318
428.99        74.59417
429.44        74.74295
429.88        74.96861
430.33        75.72986
430.77        76.64717
431.22        77.03146
431.66        76.80639
432.11        76.05047
432.56        75.10246
433.00        74.97569
433.45        75.86141
433.89         76.2057
434.34        76.26382
434.78        77.09804
435.23        76.87399
435.67        74.04903
436.12          74.792
436.57        74.89663
437.01        75.87117
437.46         76.3518
437.90         76.3913
438.35        74.74576
438.79        75.36904
439.24        75.16082
439.68        75.22492
440.13        75.65015
440.57        76.35737
441.02        76.46984
441.46        76.05171
441.91         76.7605
442.35        78.05013
442.80        77.64521
443.24         75.9299
443.69        75.74522
444.13        77.01485
444.58        77.52976
445.02        77.22466
445.47        77.34083
445.91        77.85461
446.36        78.19841
446.80        78.32707
447.24        78.37466
447.69        78.39328
448.13        78.45434
448.58        78.59214
449.02         78.7413
449.47        78.85921
449.91        78.85122
450.36        78.72828
450.80        78.51371
451.25        78.30943
451.69        78.17836
452.13        78.17408
452.58        78.31668
453.02        78.52075
453.47        78.60732
453.91        78.52794
454.36         78.3644
454.80         78.1759
455.24        77.92562
455.69        77.62858
456.13        77.52319
456.58        77.65102
457.02        76.97083
457.46        76.57008
457.91         76.8639
458.35         77.5554
458.79        77.54649
459.24        76.80536
459.68         75.8393
460.13        74.97549
460.57        74.74258
461.01        75.34477
461.46          75.116
461.90        76.14957
462.34        77.01562
462.79        76.81097
463.23        76.81371
463.68        76.90604
464.12         76.5579
464.56        75.88054
465.01        75.04837
465.45        74.28477
465.89        74.02346
466.34        74.15498
466.78        74.58463
467.22        75.19722
467.67        74.30981
468.11        74.06918
468.55        74.17929
468.99        75.06639
469.44        75.29308
469.88        74.81491
470.32        74.43475
470.77        74.24451
471.21        74.06319
471.65        73.90749
472.10         73.8331
472.54        73.81982
472.98         73.7833
473.42        73.68802
473.87        73.74896
474.31        73.83131
474.75        73.37295
475.20        72.60265
475.64         72.5021
476.08        73.02123
476.52        73.10442
476.97        72.66687
477.41        72.56902
477.85        72.99295
478.29        72.34396
478.74        72.85818
479.18        73.48802
479.62        73.22559
480.06        73.29583
480.50         73.2373
480.95        72.98186
481.39        72.54804
481.83         72.6058
482.27        72.48955
482.72        72.63002
483.16         72.8027
483.60        72.83348
484.04        72.72351
484.48        72.89297
484.93        73.04396
485.37        72.48318
485.81        72.23811
486.25        71.40043
486.69        70.97194
487.14        73.85271
487.58        73.63115
488.02        72.91856
488.46        71.45118
488.90        71.18844
489.34        72.92647
489.79        73.90672
490.23        73.68314
490.67        72.90897
491.11        71.88781
491.55        71.52927
491.99        71.84347
492.43        71.77895
492.88        71.34544
493.32        71.37621
493.76        71.81718
494.20        72.09206
494.64        72.12519
495.08        72.10799
495.52        72.06119
495.96         71.9065
496.41        71.68986
496.85        71.69334
497.29         71.7489
497.73        71.64986
498.17        70.62579
498.61        70.63628
499.05        71.24767
499.49        71.61526
499.93        71.37904
500.37        71.39569
500.82        71.58906
501.26        71.58174
501.70        71.42414
502.14        71.46291
502.58        71.68439
503.02        71.79601
503.46        71.79521
503.90           71.84
504.34        71.89654
504.78        71.80853
505.22        71.54755
505.66        71.24327
506.10          71.049
506.54        70.82038
506.98        70.51249
507.42        71.27432
507.86         71.5989
508.30        70.98131
508.74        71.60569
509.18        71.40195
509.62        71.21535
510.06        71.09104
510.50        71.09007
510.94        71.13383
511.38        71.16696
511.82        71.17611
512.26        71.14454
512.70         71.0936
513.14        71.04364
513.58         71.0191
514.02        71.03001
514.46        71.06664
514.90        71.12215
515.34        71.18917
515.78        71.25787
516.22        71.32006
516.66        71.37239
517.10        71.41038
517.54        71.43013
517.98        71.43546
518.42        71.40594
518.86         71.3109
519.30        71.15577
519.74        70.95834
520.18         70.7781
520.62        70.70364
521.06        70.75442
521.50        70.90945
521.93        71.10999
522.37        71.23408
522.81        71.25691
523.25        71.20161
523.69        71.12384
524.13        71.11584
524.57        71.19027
525.01        71.30438
525.45        71.39636
525.89        71.36987
526.32        71.20052
526.76         70.9557
527.20        70.67743
527.64        70.43377
528.08        70.25654
528.52        70.12473
528.96        70.06332
529.40        70.11718
529.83        70.27576
530.27         70.4978
530.71         70.7491
531.15        70.85818
531.59        70.81017
532.03        70.63389
532.46        70.39323
532.90        70.24287
533.34         70.2092
533.78        70.21586
534.22        70.21786
534.66        70.23129
535.09        70.18953
535.53        69.95701
535.97        69.60745
536.41        69.43557
536.85        69.47157
537.28        69.56329
537.72        69.67535
538.16        69.80528
538.60        69.92902
539.04        70.05167
539.47        70.13105
539.91        70.15485
540.35        70.11115
540.79        69.98712
541.22        69.84509
541.66        69.85703
542.10        70.01077
542.54        70.16534
542.97        70.25211
543.41        70.28432
543.85        70.23625
544.29         70.0943
544.72        69.89727
545.16        69.77221
545.60        69.73237
546.04        69.75027
546.47        69.82047
546.91        69.92559
547.35        70.04505
547.79        70.18535
548.22         70.3119
548.66        70.35085
549.10        70.36961
549.53           70.35
549.97        70.31158
550.41        70.13891
550.84        69.92364
551.28         69.8549
551.72         69.8829
552.15        69.98237
552.59        70.23242
553.03        69.62083
553.46         70.2342
553.90        70.21968
554.34         70.1779
554.77        70.10449
555.21        70.08953
555.65        70.05318
556.08        70.39283
556.52        70.35754
556.96        70.09774
557.39        69.99984
557.83        70.06742
558.27        69.90061
558.70        69.53943
559.14        69.43318
559.57        69.55163
560.01        69.54841
560.45        69.45651
560.88        69.62893
561.32        70.01414
561.75        70.19421
562.19        70.15453
562.63        70.02901
563.06        69.87529
563.50        69.80235
563.93        69.76598
564.37        69.77292
564.80        69.82998
565.24        69.74979
565.68        69.39584
566.11        70.12516
566.55        69.41969
566.98        69.24258
567.42        69.02489
567.85        69.14983
568.29        69.62337
568.72        69.93584
569.16        70.13866
569.60        70.15533
570.03        70.18592
570.47        70.23408
570.90        70.47023
571.34        69.65353
571.77        69.77597
572.21        70.63146
572.64        69.96561
573.08        70.41604
573.51        70.01532
573.95        69.95445
574.38        70.07588
574.82        70.17717
