SpectraSmart Spectrum 2.9.0.0
--------- Device Information -----------
Spectrum Name :  反射率_0
Saving Time :  2024/04/26 23:53:05
Spectro-Module Model Name : SE2030-DUVN
Spectro-Module Serial Number : OS361AC55029948
Wavelength Start : 200
Wavelength End : 1025
Wavelength Unit : Wavelength(nm)
Spectrum Unit : Reflectance(%)
-----------Spectrum Setting ------------
Integration Time : 20ms
Average : 10
Boxcar : 0
Background removal :  enabled
linearity correction :  enabled
SC :  disabled
Intensity correction :  disabled
DWT denoise :  enabled
savitzky-golay :  disabled
FFT :  disabled
Running average :  disabled
Kalman :  disabled
High pass :  disabled
---------------BEGIN--------------------
Wavelength(nm)             Reflectance(%)
200.29               0
200.75          50.478
201.21        47.08749
201.67        43.94651
202.13        41.91879
202.58        40.85817
203.04        40.81988
203.50        41.30389
203.96         40.8598
204.42        38.78503
204.88        35.19262
205.34        32.08421
205.80        32.92671
206.26        37.58156
206.72        43.79538
207.18        48.57484
207.64        49.44305
208.10        46.33323
208.55         39.7114
209.01          29.326
209.47        21.78486
209.93        22.35892
210.39        27.14386
210.85        32.64173
211.31        38.17354
211.77        45.46185
212.23        59.51459
212.69        91.62703
213.14        139.4558
213.60        126.4508
214.06        84.18837
214.52        58.11364
214.98        46.70763
215.44        41.80107
215.90        39.12133
216.36        38.45605
216.81        40.15347
217.27        44.64993
217.73        53.76653
218.19        65.33289
218.65        66.85899
219.11        55.79213
219.57        41.44944
220.02        32.03778
220.48        30.89853
220.94        37.04012
221.40         50.9934
221.86         72.6647
222.32        88.87618
222.77        86.65582
223.23        73.78545
223.69        60.06516
224.15        51.41175
224.61        47.13083
225.06        44.72887
225.52        43.25317
225.98        41.60033
226.44        39.59754
226.90        37.71045
227.36        36.25481
227.81        35.71284
228.27        36.17804
228.73        37.06219
229.19        38.13756
229.65        39.26027
230.10        40.31989
230.56        41.41758
231.02        42.01263
231.48        41.29184
231.93        39.30864
232.39         36.7072
232.85        34.40977
233.31        33.65007
233.77        34.48222
234.22        36.50488
234.68        38.90715
235.14         40.4925
235.60        40.92616
236.05        40.60508
236.51        39.91775
236.97        39.67788
237.43        40.28419
237.88        41.48439
238.34        43.29795
238.80        46.10688
239.26        50.19089
239.71        56.30578
240.17        64.00681
240.63        71.38267
241.08        76.90401
241.54         79.5251
242.00        80.98458
242.46        86.12124
242.91        98.73688
243.37        120.9769
243.83        153.9575
244.28        183.8181
244.74        188.3161
245.20        166.1019
245.66        136.2693
246.11         116.638
246.57        108.2671
247.03        106.1561
247.48        104.5355
247.94         95.8429
248.40        82.68982
248.85        70.39898
249.31        61.94939
249.77        57.94485
250.22        57.22572
250.68        58.78108
251.14        61.78159
251.59        63.54682
252.05        62.96837
252.51        61.82683
252.96        60.38681
253.42        59.20681
253.88        58.49987
254.33        57.62694
254.79        58.57633
255.25        63.02321
255.70        70.39708
256.16        79.80987
256.62        87.51442
257.07        87.83649
257.53        82.52972
257.99        75.35579
258.44         69.2163
258.90        66.68028
259.35        66.57839
259.81        67.94976
260.27        69.38992
260.72        69.31523
261.18        67.91723
261.63        65.63819
262.09         63.5816
262.55        62.31949
263.00         61.7174
263.46        61.61475
263.91        61.28703
264.37        60.19943
264.83        58.33748
265.28        55.99247
265.74        53.90311
266.19         52.6502
266.65        52.32667
267.11        52.55441
267.56        52.84961
268.02        52.46013
268.47        51.22096
268.93        49.47177
269.38        47.49969
269.84        45.79403
270.30        44.49634
270.75        43.42742
271.21        42.63929
271.66        42.15493
272.12        41.91359
272.57        41.87683
273.03         41.7675
273.48        41.11657
273.94        39.92274
274.39        38.33271
274.85        36.74362
275.31         35.5718
275.76        34.87955
276.22        34.55316
276.67        34.39832
277.13        34.23009
277.58        33.92282
278.04        33.55543
278.49        33.09484
278.95        32.60559
279.40        32.05755
279.86        31.51044
280.31        30.89349
280.77        30.22604
281.22        29.49712
281.68        28.78552
282.13        28.17543
282.59        27.86015
283.04        27.81596
283.50        27.99968
283.95        28.24288
284.41        28.28395
284.86        28.07085
285.32        27.72618
285.77        27.38341
286.22        27.29869
286.68        27.51151
287.13        27.87868
287.59        28.32284
288.04        28.68169
288.50        28.91714
288.95        29.05398
289.41        29.08605
289.86        28.92998
290.32        28.65135
290.77        28.28433
291.22         27.9897
291.68        27.99119
292.13        28.33216
292.59        28.98173
293.04        29.84716
293.50        30.78591
293.95        31.73613
294.40         32.7367
294.86        33.81499
295.31        35.00635
295.77        36.32159
296.22        37.71035
296.68        39.15473
297.13        40.62289
297.58        42.11536
298.04        43.64977
298.49        45.22563
298.95        46.85779
299.40        48.53451
299.85         50.2525
300.31        52.01264
300.76        53.79517
301.21        55.59925
301.67         57.4371
302.12        59.26869
302.58        61.12388
303.03         62.9549
303.48        64.78396
303.94        66.61873
304.39        68.40359
304.84        70.16312
305.30        71.91772
305.75        73.65549
306.20        75.45034
306.66        77.31829
307.11        79.19675
307.57        81.03228
308.02        82.63449
308.47        84.00159
308.93        85.18758
309.38         86.2968
309.83        87.60877
310.29        89.17261
310.74         90.8988
311.19        92.56984
311.65        93.80239
312.10        94.49631
312.55        94.77671
313.00        94.92482
313.46        95.37576
313.91        96.20954
314.36        97.32579
314.82        98.49621
315.27        99.36369
315.72        99.81155
316.18        99.98308
316.63        100.0341
317.08        100.2541
317.53        100.7206
317.99        101.3244
318.44        101.9615
318.89        102.4394
319.35        102.6973
319.80        102.8092
320.25        102.8512
320.70         102.939
321.16        103.1123
321.61        103.3786
322.06        103.6842
322.51        103.9547
322.97        104.1556
323.42        104.3085
323.87        104.5146
324.32        104.9581
324.78        105.6245
325.23        106.5279
325.68        107.3666
326.13        107.6576
326.59        107.3032
327.04        106.4812
327.49        105.5954
327.94        105.3162
328.39        105.8036
328.85        106.8371
329.30        108.1561
329.75        109.0221
330.20        109.1964
330.66        108.8636
331.11        108.3731
331.56        108.2145
332.01        108.5427
332.46        109.1704
332.92        109.8685
333.37        110.4235
333.82         110.681
334.27         110.784
334.72        110.7923
335.17        110.7742
335.63        110.7805
336.08        110.8413
336.53        111.0611
336.98         111.666
337.43        112.6756
337.88        113.9936
338.34        115.3862
338.79        116.5721
339.24        117.3662
339.69        117.8285
340.14        117.9756
340.59        117.8712
341.05        117.6223
341.50         117.243
341.95           116.9
342.40        116.8421
342.85        117.1322
343.30        117.7115
343.75        118.4932
344.20        119.3034
344.66        120.0548
345.11        120.7674
345.56        121.3473
346.01        121.6684
346.46        121.7346
346.91        121.5838
347.36        121.3764
347.81        121.3863
348.26        121.6613
348.72        122.1053
349.17         122.591
349.62        122.9456
350.07        123.1066
350.52        123.1593
350.97        123.0392
351.42        122.6477
351.87         122.019
352.32         121.191
352.77         120.439
353.22        120.1654
353.67        120.4226
354.13        121.0915
354.58        121.8339
355.03        122.0352
355.48         121.542
355.93        120.5272
356.38        119.3801
356.83        118.6947
357.28        118.5853
357.73        118.8457
358.18         119.121
358.63        118.8468
359.08        117.8939
359.53        116.4796
359.98        114.9145
360.43        113.6358
360.88        112.7509
361.33        112.1174
361.78        111.5621
362.23        110.8223
362.68        109.8398
363.13        108.7338
363.58         107.619
364.03        106.6478
364.48        105.8543
364.93         105.162
365.38        104.5266
365.83        103.8957
366.28        103.2459
366.73        102.6061
367.18        101.9445
367.63        101.2009
368.08        100.3753
368.53        99.48579
368.98         98.6116
369.43        97.88242
369.88        97.32195
370.33        96.88667
370.78        96.49773
371.23        96.02576
371.68        95.43061
372.13        94.74789
372.58        94.01883
373.03        93.30966
373.48        92.63696
373.93        91.96934
374.38        91.29506
374.83        90.60511
375.28        89.89984
375.72        89.18082
376.17        88.49036
376.62        87.77573
377.07        87.05038
377.52         86.3488
377.97        85.71612
378.42        85.23967
378.87        84.92964
379.32        84.71473
379.77        84.59158
380.22        84.55459
380.67        84.56261
381.11        84.64002
381.56        84.55076
382.01        84.01211
382.46        83.02911
382.91        81.75442
383.36        80.53969
383.81        79.86194
384.26        79.78368
384.71        80.14599
385.15        80.67915
385.60        80.90495
386.05         80.6797
386.50        80.13667
386.95        79.42321
387.40        78.77812
387.85        78.28502
388.29        77.82304
388.74        77.44714
389.19        77.03579
389.64         76.5703
390.09        76.09436
390.54        75.64985
390.98        75.27881
391.43         75.0299
391.88        74.86149
392.33        74.74393
392.78        74.59138
393.23        74.37998
393.67         74.2278
394.12        74.17126
394.57        73.82631
395.02        73.32741
395.47        73.32482
395.91        73.73544
396.36        73.78482
396.81        73.44599
397.26        73.16325
397.71        72.94096
398.15        72.62335
398.60        72.31604
399.05        71.86255
399.50        71.39497
399.95        71.42593
400.39        71.82967
400.84        71.75703
401.29        71.19906
401.74        70.84095
402.18        70.71586
402.63        70.36706
403.08        69.89816
403.53        69.67456
403.97         69.7092
404.42        69.87589
404.87         70.0628
405.32         70.0435
405.76        69.75849
406.21        69.47709
406.66        69.21165
407.11        68.67039
407.55         68.0891
408.00        68.09356
408.45        68.61956
408.90        69.12537
409.34        69.30663
409.79         68.7966
410.24        67.85962
410.68        67.40289
411.13        67.51477
411.58        67.66181
412.03        67.69944
412.47          67.651
412.92        67.45197
413.37        67.13161
413.81         66.7992
414.26        66.67739
414.71        66.77625
415.15        67.05901
415.60        67.38631
416.05         67.5882
416.49        67.61356
416.94        67.50954
417.39        67.36637
417.83        67.30984
418.28        67.37812
418.73        67.51967
419.17        67.69527
419.62        67.84886
420.07        67.94576
420.51        67.98312
420.96        67.97983
421.41        67.89621
421.85        67.71644
422.30        67.56055
422.74         67.3812
423.19        67.12964
423.64        66.83018
424.08        66.68643
424.53        66.71485
424.98        66.80952
425.42        66.96658
425.87        67.28633
426.31        67.64877
426.76        67.66801
427.21        67.39933
427.65        67.20197
428.10        67.10019
428.54        67.22234
428.99         67.2192
429.44        67.17019
429.88        67.10156
430.33        67.79424
430.77        68.83819
431.22        69.17754
431.66        68.76244
432.11        68.01201
432.56        67.28751
433.00        67.28485
433.45        68.12542
433.89        68.71077
434.34         69.3481
434.78        69.78489
435.23        68.83865
435.67        67.14761
436.12        67.54682
436.57        67.80584
437.01        68.54372
437.46        68.79993
437.90        68.53555
438.35        68.10258
438.79        68.06899
439.24        68.10912
439.68        68.33029
440.13        68.82164
440.57        69.47726
441.02        69.60207
441.46        69.22858
441.91         69.6557
442.35        70.50043
442.80        69.93056
443.24        68.35855
443.69        68.42365
444.13        69.93053
444.58        70.54773
445.02        70.17236
445.47        70.09599
445.91        70.39118
446.36        70.61842
446.80        70.76929
447.24        70.94781
447.69        71.11658
448.13        71.20471
448.58        71.21964
449.02        71.14721
449.47        71.04012
449.91        70.97836
450.36        71.00535
450.80        71.03667
451.25         71.0566
451.69        71.19283
452.13          71.112
452.58        71.09296
453.02        71.05745
453.47        71.05364
453.91        71.07693
454.36          71.131
454.80        71.19508
455.24        71.08639
455.69         70.7823
456.13        70.57089
456.58        70.61147
457.02        69.72126
457.46        69.88363
457.91        69.95663
458.35        70.25513
458.79        70.10759
459.24        69.53909
459.68        68.76933
460.13        68.08585
460.57        67.83134
461.01          68.128
461.46        68.49584
461.90        69.08421
462.34          69.756
462.79        69.44461
463.23        69.22657
463.68        69.45846
464.12        69.25934
464.56        68.80956
465.01        68.03166
465.45         67.2099
465.89        67.13704
466.34        67.59922
466.78        67.99199
467.22         68.2857
467.67        67.09415
468.11        67.25993
468.55        67.27047
468.99         67.7978
469.44        67.87473
469.88        67.48671
470.32        67.19734
470.77        67.06303
471.21         66.9567
471.65        66.87637
472.10        66.85868
472.54        66.89484
472.98        66.90104
473.42        66.83861
473.87        66.96355
474.31        67.11259
474.75        66.57326
475.20        65.62368
475.64         65.4875
476.08        66.08686
476.52        66.19257
476.97        65.73572
477.41        65.56638
477.85        65.82425
478.29        65.46139
478.74        65.81739
479.18        66.18059
479.62        65.91518
480.06        65.94553
480.50        65.96268
480.95        65.97482
481.39        65.94276
481.83        65.69189
482.27        65.63615
482.72        65.59383
483.16        65.40058
483.60        65.42332
484.04        65.57461
484.48        65.87653
484.93        66.11626
485.37        66.08228
485.81        65.39914
486.25        64.83067
486.69        66.00658
487.14        66.09626
487.58        65.14231
488.02        65.54406
488.46         64.6363
488.90        64.73531
489.34        65.99713
489.79        66.87637
490.23        66.18329
490.67        65.56476
491.11        64.95782
491.55        64.85885
491.99        65.19003
492.43         65.1797
492.88         64.8205
493.32        64.71169
493.76        64.89571
494.20        65.06868
494.64        65.20192
495.08        65.43626
495.52        65.66866
495.96         65.6166
496.41        65.31941
496.85        65.09067
497.29        64.90634
497.73        64.94929
498.17        64.40974
498.61        64.34573
499.05        64.47458
499.49        64.58488
499.93        64.42846
500.37        64.47016
500.82         64.6496
501.26        64.63899
501.70         64.7878
502.14        64.79922
502.58        64.80881
503.02         64.8549
503.46        64.94229
503.90        65.04498
504.34         65.1048
504.78        65.03748
505.22         64.8191
505.66        64.53938
506.10        64.31432
506.54        64.13254
506.98        63.98377
507.42        64.56094
507.86         64.5619
508.30        64.67838
508.74        64.76537
509.18        64.68912
509.62         64.5536
510.06        64.41947
510.50        64.32921
510.94        64.24815
511.38        64.20121
511.82        64.23675
512.26        64.35449
512.70        64.54156
513.14        64.74656
513.58        64.88074
514.02        64.91905
514.46         64.8813
514.90        64.80107
515.34        64.73836
515.78        64.71271
516.22        64.70623
516.66        64.70793
517.10        64.70011
517.54        64.67804
517.98        64.65444
518.42        64.63088
518.86         64.6061
519.30        64.58018
519.74        64.54814
520.18        64.51952
520.62        64.50906
521.06        64.52133
521.50        64.56104
521.93         64.6079
522.37        64.60829
522.81        64.56362
523.25        64.48112
523.69        64.41553
524.13         64.4547
524.57        64.60321
525.01        64.82138
525.45        65.02316
525.89        65.06965
526.32        64.92853
526.76        64.67433
527.20        64.37424
527.64        64.14468
528.08        64.02698
528.52        63.96847
528.96        63.97893
529.40        64.11169
529.83         64.3269
530.27        64.53399
530.71        64.67176
531.15        64.72436
531.59        64.67566
532.03        64.50024
532.46        64.25046
532.90        64.08395
533.34        64.02488
533.78        63.99907
534.22        63.97829
534.66        63.99419
535.09        63.98711
535.53        63.83089
535.97        63.56568
536.41        63.41728
536.85        63.40882
537.28        63.41598
537.72        63.44648
538.16        63.56346
538.60         63.7537
539.04        63.99263
539.47        64.20019
539.91        64.29617
540.35         64.2515
540.79        64.09677
541.22        63.89957
541.66        63.79171
542.10        63.79805
542.54        63.88128
542.97        63.97903
543.41        64.02351
543.85        63.98428
544.29        63.89439
544.72        63.77503
545.16        63.69526
545.60        63.66427
546.04        63.67118
546.47        63.70585
546.91        63.77847
547.35        63.88353
547.79        63.92949
548.22        63.92587
548.66        64.08884
549.10        64.37744
549.53        64.26294
549.97        63.83939
550.41        63.56172
550.84        63.54568
551.28        63.65389
551.72        63.77054
552.15        63.89402
552.59         64.0684
553.03        63.37796
553.46        63.78219
553.90          63.671
554.34        63.60595
554.77        63.73984
555.21        63.76383
555.65        63.89897
556.08        64.00869
556.52        64.07582
556.96        64.07095
557.39        64.11571
557.83        64.16552
558.27        63.89009
558.70        63.38898
559.14         63.1641
559.57        63.23071
560.01        63.32285
560.45        63.41219
560.88        63.59206
561.32        63.82481
561.75        64.00839
562.19        64.11244
562.63        63.94253
563.06        63.60822
563.50        63.60678
563.93         63.8426
564.37        63.89737
564.80        63.78878
565.24        63.66297
565.68        63.39698
566.11        64.06333
566.55        63.36753
566.98        63.15567
567.42        62.92237
567.85        63.09875
568.29        63.59983
568.72        63.89984
569.16        64.04559
569.60          64.045
570.03        64.09499
570.47        64.18015
570.90        64.45332
571.34        63.46571
571.77        64.04316
572.21        64.23817
572.64        64.06421
573.08         64.4478
573.51        63.70472
573.95        63.69327
574.38        64.09073
574.82        64.04424
