SpectraSmart Spectrum 2.9.0.0
--------- Device Information -----------
Spectrum Name :  反射率_0
Saving Time :  2024/04/26 23:48:59
Spectro-Module Model Name : SE2030-DUVN
Spectro-Module Serial Number : OS361AC55029948
Wavelength Start : 200
Wavelength End : 1025
Wavelength Unit : Wavelength(nm)
Spectrum Unit : Reflectance(%)
-----------Spectrum Setting ------------
Integration Time : 20ms
Average : 10
Boxcar : 0
Background removal :  enabled
linearity correction :  enabled
SC :  disabled
Intensity correction :  disabled
DWT denoise :  enabled
savitzky-golay :  disabled
FFT :  disabled
Running average :  disabled
Kalman :  disabled
High pass :  disabled
---------------BEGIN--------------------
Wavelength(nm)             Reflectance(%)
200.29               0
200.75         39.4467
201.21        37.52036
201.67        36.50617
202.13        36.32714
202.58        36.79728
203.04        38.57156
203.50        41.36082
203.96        43.50608
204.42        43.86772
204.88        42.04064
205.34        39.89539
205.80        41.31928
206.26         46.3338
206.72        52.58348
207.18        57.15936
207.64        57.62344
208.10        53.90892
208.55        46.47286
209.01        35.13553
209.47        27.31582
209.93        28.48329
210.39        34.05798
210.85        40.09143
211.31        45.65761
211.77        52.51071
212.23        65.78995
212.69        95.58989
213.14        137.2601
213.60        119.9714
214.06        77.75299
214.52        54.44818
214.98        48.04092
215.44        49.95406
215.90         55.9773
216.36        63.13065
216.81        66.84523
217.27        65.69275
217.73        60.79731
218.19        51.71355
218.65        42.55937
219.11        39.07898
219.57        39.51426
220.02        41.68185
220.48        45.11728
220.94        49.98299
221.40         57.5767
221.86        67.97317
222.32        74.88348
222.77        72.45184
223.23        65.05116
223.69        56.89955
224.15        50.33968
224.61         45.4104
225.06        41.28783
225.52        38.76396
225.98        38.50608
226.44        40.16673
226.90        43.35144
227.36        46.57881
227.81        47.28187
228.27        45.24666
228.73        41.49966
229.19        37.91997
229.65        36.61972
230.10         37.6864
230.56        40.35718
231.02         43.2186
231.48         44.0622
231.93        42.48494
232.39        39.62376
232.85        36.76225
233.31        35.54455
233.77        36.11166
234.22        37.86391
234.68        39.82757
235.14         40.6091
235.60        39.80999
236.05        37.86797
236.51        35.39437
236.97        33.69021
237.43        33.39346
237.88        34.23591
238.34        35.89441
238.80        38.00029
239.26        40.53554
239.71        44.23875
240.17         48.9801
240.63        54.06628
241.08         58.8604
241.54        62.30037
242.00        65.68756
242.46        72.86741
242.91        87.07157
243.37        110.8925
243.83        144.3988
244.28        170.5536
244.74        166.2878
245.20         133.494
245.66        96.26558
246.11          74.891
246.57        69.45538
247.03        73.72764
247.48        81.69552
247.94        83.08892
248.40        77.57352
248.85        70.72206
249.31          65.687
249.77        63.69444
250.22        64.28287
250.68        66.23799
251.14        69.61738
251.59        73.81815
252.05        77.42276
252.51        80.56882
252.96        80.74937
253.42        76.36353
253.88        68.70333
254.33         59.2601
254.79        52.15387
255.25        50.54001
255.70        53.66667
256.16        59.76101
256.62         65.2089
257.07        64.80125
257.53        59.86523
257.99        53.74211
258.44        48.59882
258.90        46.27919
259.35        45.85921
259.81        46.48709
260.27        47.27327
260.72         47.2832
261.18        46.55096
261.63        45.26973
262.09        43.96417
262.55        42.76036
263.00        41.63503
263.46        40.65466
263.91        39.56423
264.37        38.28576
264.83        36.86106
265.28        35.36478
265.74        34.18728
266.19        33.59066
266.65        33.59579
267.11        33.97757
267.56        34.41672
268.02        34.39791
268.47        33.79619
268.93        32.80635
269.38        31.59443
269.84        30.46605
270.30        29.52147
270.75         28.6695
271.21        27.97723
271.66        27.50183
272.12        27.22727
272.57        27.13222
273.03        27.05577
273.48        26.72041
273.94        26.11349
274.39        25.29734
274.85        24.48419
275.31        23.87519
275.76        23.49099
276.22        23.27137
276.67        23.10616
277.13        22.89603
277.58         22.5776
278.04        22.21264
278.49        21.78261
278.95        21.34544
279.40        20.88395
279.86        20.43541
280.31        19.98125
280.77        19.56784
281.22        19.18299
281.68        18.86469
282.13        18.59505
282.59        18.39833
283.04        18.25089
283.50        18.14518
283.95        18.07636
284.41        18.04032
284.86        18.02824
285.32         18.0565
285.77        18.07332
286.22        18.04897
286.68        17.98759
287.13        17.87691
287.59        17.79665
288.04        17.83793
288.50        18.02142
288.95        18.28819
289.41        18.55271
289.86        18.64308
290.32        18.56424
290.77        18.37676
291.22        18.20129
291.68        18.20444
292.13         18.4281
292.59        18.84392
293.04        19.40062
293.50        20.02838
293.95        20.69199
294.40        21.41484
294.86        22.21711
295.31        23.11949
295.77        24.12866
296.22        25.22249
296.68        26.37053
297.13        27.52131
297.58         28.6786
298.04        29.86708
298.49        31.13736
298.95        32.58039
299.40        34.19355
299.85        35.93467
300.31        37.73407
300.76        39.47549
301.21        41.13028
301.67        42.74286
302.12        44.31355
302.58        45.91538
303.03        47.53386
303.48        49.17211
303.94        50.85149
304.39        52.55693
304.84        54.30574
305.30        56.11016
305.75        57.92196
306.20        59.73621
306.66        61.55184
307.11        63.33569
307.57        65.07942
308.02        66.68878
308.47         68.1702
308.93        69.54092
309.38        70.85756
309.83        72.30837
310.29         73.9264
310.74        75.66086
311.19        77.33522
311.65         78.6326
312.10        79.47106
312.55        79.94174
313.00        80.30754
313.46        80.98393
313.91        82.03853
314.36        83.36816
314.82        84.71358
315.27        85.66039
315.72        86.08651
316.18        86.15502
316.63        86.07029
317.08        86.19019
317.53        86.61917
317.99        87.24178
318.44        87.94466
318.89        88.51686
319.35         88.8877
319.80        89.13173
320.25        89.32254
320.70        89.57186
321.16        89.90882
321.61        90.32107
322.06        90.73362
322.51        91.04274
322.97        91.21043
323.42        91.27298
323.87        91.34507
324.32        91.62949
324.78        92.13289
325.23        92.86356
325.68        93.56841
326.13        93.83509
326.59        93.58122
327.04        92.96883
327.49        92.32523
327.94        92.19659
328.39        92.71056
328.85          93.667
329.30        94.87659
329.75        95.76421
330.20        96.12924
330.66        96.11478
331.11        95.92725
331.56          95.839
332.01        95.96069
332.46        96.17135
332.92        96.42322
333.37        96.79757
333.82        97.22612
334.27        97.75354
334.72          98.259
335.17        98.50981
335.63        98.47047
336.08        98.26364
336.53        98.10198
336.98        98.38771
337.43        99.20976
337.88         100.415
338.34        101.7765
338.79        103.0095
339.24        103.9237
339.69        104.6008
340.14         104.987
340.59        105.0198
341.05         104.775
341.50        104.2797
341.95        103.8087
342.40        103.7892
342.85        104.3155
343.30        105.2857
343.75        106.4601
344.20        107.4091
344.66        108.0002
345.11         108.344
345.56        108.5546
346.01         108.832
346.46         109.241
346.91        109.6942
347.36        110.1559
347.81        110.5985
348.26        110.9905
348.72        111.3392
349.17        111.6191
349.62        111.8153
350.07        111.9252
350.52         111.978
350.97         111.915
351.42        111.6498
351.87        111.2042
352.32        110.6242
352.77        110.1208
353.22         109.992
353.67        110.2748
354.13        110.8736
354.58        111.5283
355.03        111.7647
355.48        111.4607
355.93        110.7463
356.38        109.9201
356.83        109.4404
357.28        109.3977
357.73        109.6338
358.18        109.8765
358.63        109.6937
359.08        108.9837
359.53        107.9091
359.98        106.7098
360.43        105.7231
360.88        105.0323
361.33        104.5347
361.78        104.0834
362.23        103.4551
362.68        102.6069
363.13        101.6375
363.58        100.6782
364.03        99.91145
364.48         99.3718
364.93        98.98066
365.38        98.63811
365.83        98.19646
366.28        97.61286
366.73        96.93835
367.18        96.21786
367.63        95.51768
368.08        94.85918
368.53        94.21521
368.98        93.58423
369.43        92.96457
369.88        92.35421
370.33        91.76859
370.78        91.18779
371.23        90.57877
371.68        89.94129
372.13        89.27758
372.58        88.64735
373.03        88.14355
373.48        87.76997
373.93        87.48942
374.38        87.19028
374.83        86.70108
375.28        85.99138
375.72        85.10299
376.17        84.20853
376.62        83.46505
377.07        82.92715
377.52        82.56851
377.97        82.30249
378.42        81.99857
378.87        81.61962
379.32        81.17406
379.77         80.7901
380.22        80.65263
380.67        80.76478
381.11        81.09045
381.56        81.30161
382.01        80.94863
382.46        79.98584
382.91        78.62498
383.36        77.29366
383.81        76.57587
384.26        76.55666
384.71         77.0319
385.15        77.69339
385.60        78.00269
386.05        77.79731
386.50        77.24554
386.95        76.49825
387.40        75.79484
387.85        75.23343
388.29        74.69343
388.74        74.27262
389.19        73.92296
389.64        73.62373
390.09        73.38654
390.54        73.17847
390.98        72.91579
391.43        72.62186
391.88        72.30747
392.33        71.99994
392.78        71.71172
393.23         71.4484
393.67        71.25037
394.12        71.16543
394.57        70.93716
395.02        70.65918
395.47        70.68842
395.91        70.96497
396.36        70.98129
396.81        70.72746
397.26        70.48929
397.71        70.25908
398.15        69.96664
398.60        69.71987
399.05        69.26146
399.50        68.75774
399.95        68.95326
400.39        69.64114
400.84        69.53931
401.29        68.68682
401.74        68.23918
402.18        68.26155
402.63        68.03969
403.08         67.6422
403.53        67.48129
403.97        67.57251
404.42        67.81239
404.87        68.04803
405.32        68.03114
405.76        67.70776
406.21        67.19288
406.66        66.66743
407.11        66.41739
407.55        66.52471
408.00        66.87495
408.45        67.30917
408.90        67.50941
409.34        67.37267
409.79          67.012
410.24        66.58395
410.68        66.29236
411.13        66.20351
411.58        66.24926
412.03         66.3274
412.47        66.27745
412.92        66.04216
413.37         65.7132
413.81        65.39561
414.26        65.29449
414.71        65.41879
415.15        65.73031
415.60        66.08654
416.05        66.31564
416.49        66.36171
416.94        66.26437
417.39        66.12075
417.83        66.06989
418.28        66.15411
418.73        66.32597
419.17        66.52498
419.62        66.66042
420.07         66.6937
420.51        66.63116
420.96        66.54552
421.41        66.46793
421.85        66.38821
422.30        66.43178
422.74        66.46704
423.19         66.2454
423.64        65.80844
424.08        65.57053
424.53        65.59566
424.98        65.69203
425.42         65.8728
425.87        66.32758
426.31        66.88601
426.76         67.0331
427.21        66.82468
427.65        66.66434
428.10        66.55821
428.54        66.87731
428.99        66.70168
429.44        66.66447
429.88        66.61826
430.33        67.24332
430.77        68.18358
431.22        68.57805
431.66        68.34592
432.11        67.74857
432.56        67.09393
433.00        67.05357
433.45        67.75899
433.89        68.50876
434.34        68.66351
434.78        69.59355
435.23        68.85181
435.67        67.00836
436.12        67.59972
436.57        67.63641
437.01        68.10182
437.46        68.33184
437.90        68.38508
438.35        67.70277
438.79         68.1561
439.24         68.1821
439.68        68.30005
440.13        68.47311
440.57        68.76218
441.02        69.08137
441.46        69.33212
441.91        69.90427
442.35        70.47694
442.80        70.09547
443.24        69.05705
443.69        69.12261
444.13        70.16335
444.58        70.58431
445.02        70.32542
445.47        70.31776
445.91        70.62199
446.36        70.92082
446.80        71.19437
447.24        71.51982
447.69        71.82262
448.13        71.96436
448.58         71.9413
449.02        71.76866
449.47        71.54511
449.91        71.39896
450.36         71.3914
450.80        71.46489
451.25        71.59751
451.69        71.69575
452.13        71.74875
452.58        71.77129
453.02        71.78107
453.47         71.8141
453.91        71.86776
454.36        71.93048
454.80        71.94541
455.24        71.80741
455.69        71.52272
456.13        71.16203
456.58        70.85494
457.02        70.50967
457.46        70.26431
457.91        70.47974
458.35        70.90916
458.79        70.87735
459.24        70.41137
459.68        69.71839
460.13        69.04434
460.57        68.84396
461.01        69.28664
461.46        68.98272
461.90        69.73152
462.34        70.42698
462.79          70.382
463.23         70.5558
463.68        70.55077
464.12        70.32092
464.56        69.84922
465.01        69.28349
465.45         68.7011
465.89        68.30438
466.34        68.10795
466.78         68.1924
467.22        68.49804
467.67        68.20511
468.11        68.08387
468.55        68.11832
468.99        68.45818
469.44        68.52661
469.88        68.31181
470.32        68.11025
470.77         67.9817
471.21        67.91439
471.65        67.91116
472.10        67.96658
472.54        68.03792
472.98        68.02451
473.42        67.89452
473.87        67.84907
474.31        67.80714
474.75        67.34452
475.20        66.64109
475.64        66.55901
476.08        67.09785
476.52        67.14848
476.97        66.57994
477.41        67.14777
477.85        67.43832
478.29        66.62908
478.74        67.46973
479.18        67.71236
479.62        67.56093
480.06        67.52236
480.50        67.41926
480.95        67.20237
481.39        66.87347
481.83        66.87541
482.27        66.52662
482.72        66.98034
483.16        66.80692
483.60        66.95937
484.04        67.05717
484.48        67.14881
484.93        67.05832
485.37        67.21072
485.81        66.30469
486.25        66.34599
486.69        66.84224
487.14        67.89215
487.58        66.65656
488.02        66.96878
488.46        66.10127
488.90         65.8483
489.34        67.36651
489.79         67.8186
490.23        67.44611
490.67        66.91518
491.11        66.44165
491.55        66.27733
491.99        66.39008
492.43        66.29915
492.88        66.01199
493.32         65.9716
493.76        66.17914
494.20        66.35449
494.64        66.45899
495.08         66.6038
495.52        66.74093
495.96        66.70502
496.41        66.51707
496.85        66.42535
497.29        66.35492
497.73         66.3387
498.17         65.6349
498.61        65.73476
499.05        66.27934
499.49        66.57017
499.93        66.32028
500.37        66.24259
500.82        66.30414
501.26        66.32544
501.70        66.30682
502.14        66.30104
502.58        66.32486
503.02        66.39148
503.46        66.49747
503.90        66.62978
504.34        66.73693
504.78         66.7383
505.22        66.61869
505.66        66.41022
506.10        66.19025
506.54         66.0262
506.98        65.93534
507.42        65.99649
507.86        66.19994
508.30        65.97168
508.74        66.16956
509.18        66.10824
509.62        66.05821
510.06        66.01015
510.50        65.97677
510.94        65.94192
511.38        65.90545
511.82        65.89412
512.26        65.91094
512.70        65.95599
513.14        66.01752
513.58        66.07295
514.02        66.11639
514.46        66.14953
514.90         66.1866
515.34        66.25384
515.78        66.34883
516.22        66.45226
516.66        66.53643
517.10        66.55899
517.54        66.51292
517.98        66.42249
518.42        66.30005
518.86        66.16496
519.30        66.03438
519.74        65.90608
520.18        65.82089
520.62        65.83829
521.06        65.96438
521.50        66.18623
521.93        66.43278
522.37          66.563
522.81         66.5537
523.25        66.43578
523.69        66.29558
524.13        66.27512
524.57        66.39659
525.01        66.60036
525.45        66.80045
525.89        66.85941
526.32        66.73747
526.76        66.51109
527.20        66.22334
527.64        65.94699
528.08        65.72107
528.52        65.51823
528.96        65.37253
529.40        65.38621
529.83        65.55244
530.27        65.75536
530.71        65.89748
531.15        66.17954
531.59        66.06245
532.03        65.95959
532.46         65.7767
532.90        65.67856
533.34          65.684
533.78        65.71858
534.22         65.7442
534.66        65.77126
535.09        65.73846
535.53        65.52262
535.97        65.18925
536.41        65.00693
536.85         65.0083
537.28        65.05945
537.72        65.14167
538.16        65.27536
538.60        65.43767
539.04        65.61601
539.47         65.7627
539.91        65.84826
540.35        65.85133
540.79        65.78526
541.22        65.67781
541.66         65.5984
542.10        65.56013
542.54        65.55004
542.97        65.54676
543.41        65.54434
543.85        65.52745
544.29        65.51131
544.72        65.48608
545.16        65.46391
545.60        65.43329
546.04        65.42551
546.47        65.45155
546.91        65.45508
547.35        65.46429
547.79        65.62668
548.22        65.87369
548.66        65.95279
549.10        65.91557
549.53        65.84752
549.97        65.78981
550.41         65.6225
550.84        65.43053
551.28         65.4131
551.72        65.51736
552.15        65.63185
552.59        65.80321
553.03         65.4012
553.46        65.82948
553.90        65.79992
554.34        65.72112
554.77        65.61314
555.21         65.5304
555.65        65.51811
556.08         65.5662
556.52        65.63261
556.96         65.6801
557.39        65.79597
557.83        65.91084
558.27        65.77653
558.70        65.29248
559.14        65.17087
559.57        65.33708
560.01        65.44253
560.45        65.45215
560.88        65.50134
561.32        65.60147
561.75        65.70735
562.19        65.80738
562.63        65.70864
563.06        65.45451
563.50        65.49139
563.93        65.51183
564.37        65.52112
564.80        65.47447
565.24        65.37165
565.68        65.08636
566.11        65.78707
566.55        65.11803
566.98        64.98172
567.42        64.82818
567.85        64.99504
568.29        65.41772
568.72        65.70286
569.16        65.92745
569.60        65.98361
570.03        66.02923
570.47         66.2507
570.90        66.76727
571.34        65.46768
571.77        66.32814
572.21        66.21374
572.64        65.99274
573.08        66.46615
573.51        65.49773
573.95        65.53075
574.38        65.99803
574.82        66.23902
