SpectraSmart Spectrum 2.9.0.0
--------- Device Information -----------
Spectrum Name :  反射率_0
Saving Time :  2024/04/26 23:52:25
Spectro-Module Model Name : SE2030-DUVN
Spectro-Module Serial Number : OS361AC55029948
Wavelength Start : 200
Wavelength End : 1025
Wavelength Unit : Wavelength(nm)
Spectrum Unit : Reflectance(%)
-----------Spectrum Setting ------------
Integration Time : 20ms
Average : 10
Boxcar : 0
Background removal :  enabled
linearity correction :  enabled
SC :  disabled
Intensity correction :  disabled
DWT denoise :  enabled
savitzky-golay :  disabled
FFT :  disabled
Running average :  disabled
Kalman :  disabled
High pass :  disabled
---------------BEGIN--------------------
Wavelength(nm)             Reflectance(%)
200.29               0
200.75        42.45778
201.21        41.60208
201.67        40.64406
202.13        39.76757
202.58        38.88564
203.04        38.09285
203.50        37.86706
203.96        39.27806
204.42        42.87593
204.88        48.54259
205.34        54.42389
205.80         57.2889
206.26        56.41125
206.72        52.78206
207.18        48.94231
207.64         47.1728
208.10        47.58605
208.55        50.20106
209.01        53.61233
209.47        53.26128
209.93        48.41492
210.39        43.11618
210.85        39.70213
211.31        38.79957
211.77        40.35164
212.23        45.51769
212.69        61.46798
213.14        99.18849
213.60        115.1731
214.06        102.4056
214.52        88.27014
214.98        78.78709
215.44        71.05737
215.90        62.20243
216.36        53.35972
216.81        46.82822
217.27        43.52953
217.73        43.80262
218.19        46.25707
218.65        45.22845
219.11        40.07286
219.57        34.58202
220.02        32.57999
220.48         36.6053
220.94        46.98063
221.40        65.63729
221.86        91.40186
222.32        105.8501
222.77         95.1283
223.23        72.29251
223.69        52.15984
224.15        42.93196
224.61        41.99122
225.06        44.49736
225.52        47.94537
225.98        49.84948
226.44        49.89896
226.90        49.29526
227.36         47.9007
227.81        45.40499
228.27        42.34417
228.73        38.82159
229.19        36.07513
229.65         35.5494
230.10        37.13036
230.56        40.33905
231.02        43.69288
231.48        44.75153
231.93        43.14513
232.39        40.11656
232.85        37.13366
233.31        36.12967
233.77        37.30338
234.22        39.93765
234.68        43.11414
235.14        45.52979
235.60        46.76368
236.05        47.29538
236.51        47.35678
236.97          47.398
237.43        47.69521
237.88        48.07281
238.34        48.75404
238.80        50.49127
239.26         53.6908
239.71        59.04147
240.17        66.19727
240.63        73.53545
241.08        79.70551
241.54        83.71497
242.00        86.96706
242.46        93.62469
242.91        107.2097
243.37        129.6079
243.83        161.3466
244.28        188.0309
244.74        187.8565
245.20        161.0066
245.66        128.0372
246.11        106.6227
246.57        97.51109
247.03        96.01621
247.48         96.6382
247.94        91.54525
248.40        82.16252
248.85        72.95449
249.31        67.36053
249.77        67.06198
250.22        71.55929
250.68        80.41534
251.14        92.06423
251.59        99.22893
252.05        97.70863
252.51        91.30702
252.96        83.57645
253.42        78.47971
253.88        76.22029
254.33        74.80379
254.79        75.66209
255.25        79.76299
255.70         86.3306
256.16        94.84257
256.62        101.3444
257.07        100.0401
257.53          93.189
257.99          84.731
258.44        77.77636
258.90        75.09142
259.35         75.2661
259.81        77.18024
260.27        79.11864
260.72         79.1174
261.18        77.39861
261.63        74.53285
262.09         71.8798
262.55        70.20492
263.00        69.34875
263.46        69.08042
263.91        68.53207
264.37        67.03746
264.83        64.60286
265.28        61.63899
265.74        58.99969
266.19        57.36187
266.65        56.84931
267.11        57.03133
267.56        57.42505
268.02         57.2954
268.47        56.41964
268.93        55.06372
269.38        53.42144
269.84        51.85513
270.30        50.47039
270.75        49.15307
271.21        47.92535
271.66         46.7564
272.12         45.6524
272.57        44.64315
273.03        43.73099
273.48        42.87712
273.94        42.12458
274.39        41.41669
274.85         40.8254
275.31        40.31049
275.76        39.81992
276.22         39.3795
276.67        38.89886
277.13        38.36307
277.58        37.71395
278.04        36.99813
278.49         36.2053
278.95        35.45523
279.40        34.72101
279.86        34.05774
280.31         33.3879
280.77        32.71051
281.22        31.99429
281.68        31.33245
282.13        30.73923
282.59        30.31914
283.04        30.04887
283.50        29.91664
283.95         29.8828
284.41        29.89985
284.86        29.94156
285.32        30.04127
285.77        30.16633
286.22        30.34546
286.68        30.57549
287.13        30.78578
287.59        31.00054
288.04        31.21218
288.50        31.42578
288.95        31.60679
289.41        31.70411
289.86         31.5662
290.32         31.2459
290.77        30.81355
291.22        30.44911
291.68        30.39228
292.13        30.70238
292.59        31.35443
293.04        32.27216
293.50        33.34139
293.95        34.50406
294.40        35.78614
294.86        37.21056
295.31        38.80167
295.77        40.55577
296.22        42.41446
296.68        44.32065
297.13        46.18417
297.58        47.99936
298.04        49.79912
298.49        51.63288
298.95        53.60182
299.40        55.70533
299.85        57.90567
300.31        60.15737
300.76        62.36219
301.21        64.50408
301.67        66.63213
302.12        68.71734
302.58        70.81735
303.03         72.8956
303.48         74.9716
303.94        77.09225
304.39        79.24833
304.84        81.46932
305.30        83.75819
305.75        86.03485
306.20         88.2793
306.66        90.48959
307.11        92.62274
307.57        94.67933
308.02        96.53532
308.47        98.20942
308.93        99.72993
309.38        101.1701
309.83        102.7823
310.29         104.609
310.74        106.5769
311.19        108.4655
311.65         109.878
312.10        110.7131
312.55        111.0957
313.00        111.3412
313.46        111.9422
313.91        112.9805
314.36        114.3386
314.82        115.7386
315.27        116.7453
315.72         117.219
316.18        117.3352
316.63        117.2856
317.08        117.4204
317.53        117.8463
317.99        118.4506
318.44        119.1273
318.89        119.6745
319.35        120.0238
319.80        120.2407
320.25        120.4195
320.70        120.7058
321.16        121.1262
321.61        121.6712
322.06        122.1954
322.51         122.482
322.97        122.4717
323.42        122.2382
323.87        122.0109
324.32        122.1846
324.78        122.8011
325.23        123.8429
325.68        124.9079
326.13        125.3323
326.59        124.9621
327.04        124.0297
327.49        123.0201
327.94         122.738
328.39        123.3707
328.85        124.6353
329.30        126.2013
329.75         127.174
330.20        127.2676
330.66        126.7173
331.11          125.96
331.56        125.6059
332.01        125.8562
332.46        126.4943
332.92        127.2552
333.37        127.8881
333.82        128.2051
334.27        128.3576
334.72        128.4153
335.17        128.4597
335.63        128.5364
336.08        128.6754
336.53        128.9344
336.98        129.4759
337.43         130.316
337.88        131.3832
338.34        132.5323
338.79        133.6476
339.24        134.5786
339.69        135.3438
340.14        135.8545
340.59        135.9979
341.05        135.8295
341.50        135.3999
341.95         134.955
342.40        134.8701
342.85        135.2379
343.30        135.9576
343.75        136.8681
344.20        137.6803
344.66        138.2839
345.11        138.7456
345.56        139.0631
346.01        139.2447
346.46        139.3326
346.91        139.3359
347.36        139.3289
347.81        139.4518
348.26        139.7204
348.72        140.0679
349.17        140.4663
349.62        140.9061
350.07        141.3446
350.52        141.8029
350.97        142.0535
351.42        141.7428
351.87        140.8555
352.32        139.5192
352.77        138.1911
353.22        137.5394
353.67         137.677
354.13        138.4083
354.58        139.2656
355.03        139.4119
355.48        138.6396
355.93        137.2046
356.38        135.6185
356.83        134.6489
357.28        134.4446
357.73        134.7308
358.18        135.0579
358.63        134.7159
359.08        133.5375
359.53        131.7956
359.98        129.8662
360.43        128.2791
360.88        127.1667
361.33        126.3558
361.78         125.649
362.23         124.748
362.68        123.5881
363.13        122.3123
363.58        121.0416
364.03        119.9339
364.48        119.0199
364.93        118.2019
365.38        117.4504
365.83        116.7419
366.28        116.0501
366.73        115.3991
367.18        114.6862
367.63         113.741
368.08        112.5527
368.53        111.1768
368.98        109.8141
369.43        108.7855
369.88        108.1598
370.33        107.8472
370.78        107.6374
371.23        107.1797
371.68        106.3723
372.13        105.3047
372.58        104.1581
373.03        103.2226
373.48        102.5636
373.93        102.0796
374.38        101.5938
374.83        100.8405
375.28        99.77032
375.72        98.47367
376.17        97.19086
376.62        96.14751
377.07        95.41663
377.52        94.95104
377.97        94.61448
378.42        94.20662
378.87        93.67769
379.32         93.0348
379.77         92.4601
380.22         92.2665
380.67        92.47079
381.11        92.80602
381.56        93.18463
382.01         92.7276
382.46        91.46913
382.91        89.68726
383.36        87.92149
383.81        86.89643
384.26        86.72504
384.71        87.16129
385.15        87.85998
385.60        88.21716
386.05         88.0401
386.50        87.51072
386.95        86.76557
387.40        86.02245
387.85        85.37835
388.29        84.70876
388.74        84.14468
389.19        83.66031
389.64        83.24384
390.09        82.90675
390.54        82.61233
390.98        82.26822
391.43        81.90179
391.88        81.52226
392.33        81.16988
392.78        80.86939
393.23         80.6177
393.67        80.45558
394.12        80.39972
394.57        80.09714
395.02        79.63378
395.47        79.51872
395.91        79.69565
396.36        79.58263
396.81         79.1769
397.26        78.81043
397.71        78.51014
398.15        78.18589
398.60        77.94263
399.05        77.62222
399.50         77.2853
399.95        77.30386
400.39        77.57001
400.84        77.33047
401.29        76.62939
401.74        76.26852
402.18        76.22775
402.63        75.74568
403.08        74.98681
403.53        74.67992
403.97        74.85845
404.42        75.20436
404.87        75.51538
405.32        75.52041
405.76         75.1329
406.21         74.6031
406.66        74.07679
407.11        73.49908
407.55        73.10559
408.00        73.44095
408.45        74.28817
408.90        74.68681
409.34        74.40629
409.79        73.70489
410.24        72.87241
410.68        72.37759
411.13        72.32125
411.58        72.45272
412.03        72.62182
412.47         72.6741
412.92        72.51908
413.37         72.2453
413.81        71.94034
414.26        71.79708
414.71        71.82401
415.15         71.9788
415.60        72.16959
416.05        72.32888
416.49        72.42619
416.94         72.4774
417.39         72.4907
417.83        72.46127
418.28         72.4022
418.73        72.30628
419.17        72.21752
419.62         72.2155
420.07        72.30254
420.51        72.43043
420.96        72.56522
421.41        72.58359
421.85        72.44804
422.30        72.30289
422.74        72.10884
423.19        71.87806
423.64        71.60628
424.08        71.36837
424.53        71.24765
424.98         71.2874
425.42        71.49051
425.87        72.09232
426.31        72.80591
426.76         72.5195
427.21        71.47717
427.65        71.22598
428.10        71.72488
428.54        72.10399
428.99        71.77352
429.44        71.65351
429.88        71.70691
430.33        72.35303
430.77         73.2315
431.22        73.54842
431.66        73.20105
432.11        72.46288
432.56        71.66104
433.00        71.38111
433.45        71.80822
433.89        72.65311
434.34        73.20627
434.78         74.2704
435.23        73.11504
435.67        71.79308
436.12        72.02676
436.57        72.23155
437.01        72.77034
437.46        73.02312
437.90        73.06339
438.35        71.57704
438.79        72.10716
439.24        71.90703
439.68        71.95142
440.13        72.36134
440.57        73.03095
441.02         73.0304
441.46        72.47076
441.91        73.02355
442.35        74.18456
442.80        73.89378
443.24        72.53376
443.69        72.22116
444.13         72.9473
444.58        73.77635
445.02        73.56398
445.47        73.69144
445.91        73.87893
446.36        74.11061
446.80        74.35247
447.24         74.5255
447.69        74.62621
448.13        74.62579
448.58        74.58735
449.02        74.65393
449.47        74.79844
449.91        74.77897
450.36        74.61352
450.80        74.42606
451.25        74.29232
451.69        74.20923
452.13        74.20808
452.58        74.27384
453.02        74.38096
453.47        74.49696
453.91        74.58589
454.36        74.65108
454.80        74.64774
455.24        74.45426
455.69        74.07574
456.13        73.68237
456.58        73.37424
457.02          72.784
457.46         72.1716
457.91         72.4314
458.35        73.23878
458.79        73.33831
459.24        72.69397
459.68        71.89492
460.13         71.2684
460.57        70.96152
461.01        71.08881
461.46        71.48561
461.90        71.92634
462.34         72.4841
462.79        72.02698
463.23        72.09413
463.68        72.25814
464.12        72.14909
464.56        71.69669
465.01        70.85549
465.45        69.92221
465.89        69.77199
466.34        70.21381
466.78          70.527
467.22        70.72569
467.67        69.66058
468.11        70.17239
468.55        70.16283
468.99        70.36552
469.44        70.30825
469.88        70.00336
470.32        69.72151
470.77        69.51344
471.21        69.38397
471.65         69.3334
472.10        69.36555
472.54        69.45022
472.98        69.47376
473.42        69.39142
473.87        69.45875
474.31        69.54127
474.75        68.99854
475.20         68.0919
475.64        67.97759
476.08        68.57827
476.52        68.62891
476.97        68.03445
477.41        67.94441
477.85        68.17543
478.29        67.59028
478.74        67.88086
479.18        68.54488
479.62        68.66258
480.06        68.83008
480.50        68.59079
480.95        68.42642
481.39        68.45168
481.83        67.55563
482.27        67.83707
482.72        67.97326
483.16        67.92551
483.60        67.91046
484.04        68.05893
484.48        68.20029
484.93         68.2616
485.37        68.23898
485.81        67.21908
486.25        67.39436
486.69        68.88229
487.14        69.37472
487.58        67.70052
488.02        68.19402
488.46        67.02045
488.90        67.00403
489.34        68.20693
489.79        68.92561
490.23        68.63016
490.67        67.91521
491.11        66.98228
491.55        66.75256
491.99        67.16756
492.43        67.14602
492.88        66.67654
493.32        66.56194
493.76         66.8008
494.20        66.93164
494.64        66.91141
495.08        66.91271
495.52        66.93068
495.96         66.8416
496.41         66.6993
496.85        66.77841
497.29        66.91418
497.73        67.02987
498.17         66.3157
498.61        66.19331
499.05        66.29048
499.49        66.54225
499.93        66.58979
500.37        66.66659
500.82         66.6858
501.26        66.67619
501.70        66.65701
502.14         66.6569
502.58        66.69156
503.02        66.72709
503.46        66.76404
503.90         66.8489
504.34         66.9326
504.78        66.89729
505.22        66.72913
505.66        66.48005
506.10        66.22968
506.54        66.05199
506.98        65.96548
507.42        66.02558
507.86        66.21603
508.30         66.0491
508.74        66.22829
509.18        66.19285
509.62        66.15708
510.06        66.09918
510.50        66.03035
510.94        65.93901
511.38        65.85397
511.82         65.8446
512.26        65.91992
512.70        66.06464
513.14        66.22536
513.58        66.31249
514.02        66.30377
514.46        66.22035
514.90        66.11543
515.34        66.07842
515.78        66.12621
516.22        66.22408
516.66        66.31799
517.10        66.32169
517.54        66.21882
517.98        66.05148
518.42        65.85789
518.86        65.69573
519.30        65.58828
519.74        65.51595
520.18         65.4955
520.62        65.54565
521.06        65.66453
521.50        65.86453
521.93        66.07607
522.37        66.15105
522.81        66.07232
523.25        65.87573
523.69        65.66939
524.13        65.62453
524.57        65.76859
525.01        66.03912
525.45        66.31533
525.89        66.40076
526.32         66.2448
526.76         65.9409
527.20        65.58099
527.64        65.31137
528.08        65.18204
528.52        65.14764
528.96        65.19228
529.40         65.2934
529.83        65.42397
530.27        65.59142
530.71        65.75011
531.15        65.83018
531.59        65.81686
532.03        65.72543
532.46        65.57312
532.90        65.44143
533.34        65.34432
533.78         65.2284
534.22        65.11376
534.66        65.10773
535.09        65.16358
535.53        65.12835
535.97        64.98804
536.41         64.8891
536.85         64.8376
537.28        64.73324
537.72        64.63742
538.16        64.70112
538.60        64.93014
539.04        65.26787
539.47        65.58408
539.91        65.72359
540.35        65.63951
540.79        65.39063
541.22        65.07697
541.66        64.88131
542.10        64.84373
542.54        64.90837
542.97        65.00429
543.41        65.04887
543.85        65.00838
544.29        64.93286
544.72        64.82886
545.16        64.73893
545.60        64.66586
546.04        64.59937
546.47         64.5784
546.91        64.66004
547.35        64.84026
547.79        65.10515
548.22        65.36358
548.66        65.45163
549.10        65.41524
549.53        65.27299
549.97        65.09763
550.41        64.86385
550.84         64.6731
551.28        64.69299
551.72        64.84473
552.15        64.98263
552.59        65.14694
553.03        64.69219
553.46         65.1097
553.90        65.05473
554.34        64.98711
554.77        64.88844
555.21        64.83597
555.65        64.84934
556.08        64.89912
556.52        65.11584
556.96        65.19455
557.39        65.16432
557.83        64.98328
558.27        64.72216
558.70        64.44476
559.14        64.32239
559.57        64.34386
560.01        64.32317
560.45        64.27045
560.88        64.44959
561.32        64.79881
561.75         64.8773
562.19        64.73318
562.63        64.68715
563.06        64.76241
563.50        64.86097
563.93        64.88526
564.37        64.85258
564.80        64.78608
565.24        64.58263
565.68        64.15301
566.11        64.73251
566.55        64.01455
566.98        63.87803
567.42        63.77246
567.85        63.95041
568.29        64.36581
568.72         64.7841
569.16         65.2183
569.60        65.37263
570.03        65.36174
570.47        65.61613
570.90        65.83817
571.34        64.97166
571.77        65.30431
572.21        65.86358
572.64         65.6942
573.08        65.63017
573.51        65.11819
573.95        65.17031
574.38        65.87378
574.82        65.59705
