SpectraSmart Spectrum 2.9.0.0
--------- Device Information -----------
Spectrum Name :  反射率_0
Saving Time :  2024/04/27 00:00:20
Spectro-Module Model Name : SE2030-DUVN
Spectro-Module Serial Number : OS361AC55029948
Wavelength Start : 200
Wavelength End : 1025
Wavelength Unit : Wavelength(nm)
Spectrum Unit : Reflectance(%)
-----------Spectrum Setting ------------
Integration Time : 20ms
Average : 10
Boxcar : 0
Background removal :  enabled
linearity correction :  enabled
SC :  disabled
Intensity correction :  disabled
DWT denoise :  enabled
savitzky-golay :  disabled
FFT :  disabled
Running average :  disabled
Kalman :  disabled
High pass :  disabled
---------------BEGIN--------------------
Wavelength(nm)             Reflectance(%)
200.29               0
200.75        48.19605
201.21        43.50805
201.67        39.60731
202.13        37.80687
202.58        37.97996
203.04         40.0386
203.50         43.7746
203.96        47.62905
204.42        50.12849
204.88        51.11684
205.34        50.41418
205.80         48.5798
206.26        46.21106
206.72        43.44786
207.18        40.67826
207.64        37.75797
208.10        34.33975
208.55         30.1603
209.01        25.40154
209.47         23.9587
209.93        27.41621
210.39        32.78546
210.85        37.73145
211.31        42.39251
211.77         48.5747
212.23         60.1395
212.69        87.70021
213.14        136.9188
213.60        139.8698
214.06        108.7586
214.52        85.94839
214.98        74.52833
215.44        68.14662
215.90        62.76153
216.36        58.36077
216.81        55.49672
217.27        54.55104
217.73        56.56206
218.19        60.08404
218.65        58.82121
219.11        52.39466
219.57        45.23856
220.02         41.7511
220.48        44.60517
220.94         53.6829
221.40        70.36925
221.86        93.60812
222.32        106.7402
222.77        96.96384
223.23        76.22437
223.69        57.18815
224.15        46.61519
224.61        42.71884
225.06        41.84406
225.52        42.51463
225.98        43.27026
226.44        43.71881
226.90        44.42651
227.36        44.90693
227.81        44.22148
228.27        42.52821
228.73        40.08495
229.19        37.97107
229.65        37.47902
230.10        38.58191
230.56        40.83112
231.02        43.17192
231.48        43.89009
231.93        42.71695
232.39        40.64197
232.85        38.60141
233.31        37.84292
233.77        38.49635
234.22        40.05614
234.68        42.04795
235.14         43.8934
235.60        45.34774
236.05        46.69628
236.51        47.68645
236.97        47.76818
237.43        46.86994
237.88        45.13184
238.34        43.35112
238.80        43.16335
239.26         45.2201
239.71        49.89034
240.17        56.74529
240.63        63.80263
241.08        69.43933
241.54        73.02859
242.00        75.42403
242.46        79.47134
242.91        87.63177
243.37        100.3398
243.83        118.2649
244.28        134.6907
244.74        137.8107
245.20        127.0545
245.66        111.9944
246.11        101.2889
246.57          95.907
247.03        93.24648
247.48        90.72768
247.94        85.26662
248.40        78.37118
248.85        72.25739
249.31        68.08936
249.77        65.51756
250.22        63.75204
250.68        62.13976
251.14        60.59851
251.59        59.55183
252.05        59.74106
252.51        61.50675
252.96        62.99873
253.42        62.83127
253.88        61.23472
254.33        58.49426
254.79         57.2892
255.25        59.74211
255.70        65.32221
256.16        72.98792
256.62        79.07883
257.07        78.29195
257.53        72.47739
257.99        65.25468
258.44          59.388
258.90        57.26089
259.35        57.67339
259.81        59.55101
260.27        61.42132
260.72        61.58564
261.18        60.19668
261.63        57.81933
262.09        55.54081
262.55        53.96427
263.00        53.01543
263.46         52.5344
263.91        51.93944
264.37        50.82047
264.83        49.17243
265.28        47.23115
265.74        45.58625
266.19         44.6763
266.65        44.56813
267.11        44.94122
267.56        45.40578
268.02        45.35241
268.47        44.62546
268.93        43.47479
269.38        42.07874
269.84        40.76769
270.30        39.64703
270.75        38.59829
271.21         37.7223
271.66        37.12059
272.12        36.77537
272.57        36.64645
273.03        36.49519
273.48        35.91272
273.94        34.89532
274.39        33.56932
274.85        32.27223
275.31        31.35045
275.76        30.84079
276.22        30.62814
276.67        30.53195
277.13         30.3768
277.58        30.05627
278.04        29.66193
278.49        29.15659
278.95        28.58844
279.40        27.94716
279.86        27.29788
280.31        26.64789
280.77        26.10984
281.22        25.66607
281.68         25.3308
282.13        25.07683
282.59        24.93444
283.04         24.8633
283.50        24.87508
283.95        24.88476
284.41        24.76923
284.86         24.5141
285.32        24.18255
285.77        23.87876
286.22        23.80817
286.68        23.99372
287.13         24.3299
287.59        24.70411
288.04        24.90119
288.50        24.88979
288.95        24.71533
289.41        24.47374
289.86        24.24387
290.32        24.09723
290.77        24.01008
291.22        23.99782
291.68         24.0691
292.13        24.22717
292.59        24.50564
293.04        24.93563
293.50        25.57155
293.95        26.40395
294.40        27.40962
294.86        28.52365
295.31         29.6391
295.77        30.73329
296.22         31.8171
296.68        32.94266
297.13        34.18246
297.58        35.56428
298.04        37.06741
298.49        38.65079
298.95        40.26801
299.40        41.88655
299.85        43.51758
300.31        45.18217
300.76        46.89349
301.21        48.65944
301.67        50.48801
302.12        52.31643
302.58        54.13058
303.03        55.89153
303.48         57.6412
303.94        59.44555
304.39        61.34388
304.84        63.36264
305.30        65.47578
305.75        67.60012
306.20        69.69373
306.66        71.74047
307.11          73.717
307.57        75.60156
308.02        77.26237
308.47        78.72005
308.93        80.01341
309.38        81.25719
309.83        82.74371
310.29         84.5197
310.74        86.49152
311.19        88.42427
311.65        89.89923
312.10         90.8008
312.55        91.25929
313.00        91.54795
313.46        92.09705
313.91        92.99432
314.36        94.14027
314.82        95.33966
315.27        96.28769
315.72        96.87656
316.18        97.23509
316.63        97.47671
317.08        97.82085
317.53        98.33338
317.99        98.93007
318.44        99.54697
318.89        100.0581
319.35        100.4199
319.80        100.6805
320.25        100.8909
320.70        101.1281
321.16        101.4156
321.61        101.7706
322.06        102.1356
322.51        102.4292
322.97        102.6194
323.42        102.7287
323.87        102.8747
324.32        103.2709
324.78        103.9118
325.23         104.806
325.68        105.6458
326.13        105.9315
326.59        105.5616
327.04         104.723
327.49        103.8184
327.94        103.5137
328.39        103.9704
328.85        104.9668
329.30        106.2566
329.75        107.1345
330.20        107.3631
330.66        107.1108
331.11        106.6978
331.56        106.5663
332.01        106.8636
332.46        107.4309
332.92        108.0471
333.37        108.5122
333.82        108.6884
334.27         108.705
334.72        108.6869
335.17         108.808
335.63        109.1249
336.08        109.6364
336.53         110.296
336.98        111.0783
337.43        111.9483
337.88        112.8794
338.34        113.8205
338.79        114.8091
339.24        115.7531
339.69        116.6191
340.14        117.2715
340.59        117.5196
341.05          117.39
341.50        116.9753
341.95         116.521
342.40        116.3948
342.85         116.698
343.30         117.327
343.75        118.1668
344.20        119.0068
344.66        119.7488
345.11         120.436
345.56        120.9942
346.01        121.3177
346.46        121.4169
346.91        121.3221
347.36        121.1755
347.81        121.2262
348.26        121.5155
348.72        121.9506
349.17         122.427
349.62        122.8082
350.07        123.0366
350.52        123.1858
350.97        123.1541
351.42        122.7813
351.87        122.0958
352.32        121.1646
352.77        120.3119
353.22        120.0118
353.67         120.333
354.13        121.1307
354.58        122.0409
355.03        122.4038
355.48        122.0408
355.93        121.1313
356.38        120.0553
356.83        119.3951
357.28        119.2698
357.73        119.4798
358.18        119.6896
358.63        119.3694
359.08        118.4042
359.53        117.0056
359.98        115.4874
360.43        114.2879
360.88        113.5097
361.33        113.0101
361.78        112.5893
362.23        111.9413
362.68        110.9963
363.13        109.8772
363.58         108.732
364.03        107.7697
364.48        107.0344
364.93        106.4345
365.38        105.8779
365.83        105.2352
366.28         104.469
366.73        103.6346
367.18        102.7654
367.63        101.8995
368.08        101.0608
368.53        100.2441
368.98        99.46459
369.43        98.74669
369.88        98.09321
370.33        97.49445
370.78        96.94344
371.23         96.4325
371.68        95.94285
372.13        95.45332
372.58        94.93187
373.03        94.32955
373.48        93.63231
373.93        92.86058
374.38        92.01592
374.83        91.11246
375.28         90.1796
375.72        89.21021
376.17        88.33308
376.62        87.62555
377.07        87.10754
377.52        86.77522
377.97         86.5208
378.42        86.17735
378.87        85.70521
379.32        85.11592
379.77        84.57522
380.22        84.33069
380.67        84.39755
381.11        84.72442
381.56        84.95532
382.01        84.59447
382.46         83.5824
382.91        82.14846
383.36        80.73687
383.81        79.95045
384.26        79.88107
384.71         80.3216
385.15        80.95587
385.60        81.23536
386.05        80.99401
386.50        80.39468
386.95        79.61082
387.40        78.91556
387.85        78.40359
388.29        77.93954
388.74        77.56765
389.19        77.15402
389.64        76.67525
390.09        76.17841
390.54        75.70963
390.98        75.31716
391.43        75.05105
391.88        74.86601
392.33        74.72353
392.78        74.52896
393.23        74.25721
393.67        74.02259
394.12        73.87505
394.57        73.46455
395.02        72.92288
395.47        72.86535
395.91        73.20368
396.36        73.18966
396.81        72.80172
397.26        72.46475
397.71        72.21009
398.15        71.94056
398.60        71.75902
399.05        71.45226
399.50        71.10204
399.95        71.23064
400.39         71.6683
400.84        71.39427
401.29        70.48512
401.74        69.98304
402.18        69.92983
402.63        69.58515
403.08        69.02674
403.53        68.75683
403.97        68.78883
404.42        68.93578
404.87        69.08248
405.32        69.06083
405.76        68.82008
406.21        68.51845
406.66        68.23189
407.11        67.95051
407.55        67.81738
408.00        68.03522
408.45        68.48846
408.90        68.84131
409.34        68.85388
409.79        68.21489
410.24        67.18258
410.68        66.54477
411.13        66.40051
411.58        66.32795
412.03         66.2507
412.47        66.23209
412.92        66.21555
413.37        66.21356
413.81        66.21182
414.26        66.25436
414.71        66.31834
415.15         66.4024
415.60        66.47534
416.05        66.56937
416.49        66.68818
416.94        66.81657
417.39        66.92276
417.83        66.94196
418.28        66.87292
418.73        66.73632
419.17        66.60087
419.62        66.57869
420.07        66.67753
420.51        66.83301
420.96         66.9967
421.41        67.00645
421.85        66.80864
422.30        66.62968
422.74        66.43275
423.19        66.01932
423.64        65.50388
424.08        65.44934
424.53        65.79585
424.98        65.99473
425.42        66.00303
425.87        66.10865
426.31        66.29406
426.76        66.34045
427.21        66.26306
427.65        66.13523
428.10          65.979
428.54         65.9654
428.99        66.14381
429.44        66.06936
429.88        65.92196
430.33        66.64606
430.77        67.81138
431.22        68.24592
431.66        67.85238
432.11        67.01871
432.56        66.09763
433.00        65.96771
433.45        66.78722
433.89        67.49754
434.34        67.27224
434.78        68.89193
435.23        66.72478
435.67        65.32075
436.12        65.99043
436.57        66.16573
437.01        66.47079
437.46        66.54014
437.90        66.39779
438.35        66.26645
438.79        66.21872
439.24        66.25859
439.68        66.35218
440.13        66.65469
440.57        67.12504
441.02        67.11164
441.46        66.73492
441.91        67.38194
442.35        68.56889
442.80        68.30649
443.24        66.90584
443.69         66.8087
444.13        67.92464
444.58        68.33241
445.02        67.97811
445.47        67.93803
445.91        68.24474
446.36        68.48946
446.80        68.64664
447.24        68.81004
447.69        68.96204
448.13         69.0593
448.58        69.10815
449.02         69.0869
449.47        69.00801
449.91        68.86927
450.36        68.70702
450.80        68.51183
451.25        68.34738
451.69        68.25546
452.13        68.25832
452.58        68.32699
453.02        68.42442
453.47        68.50339
453.91        68.53374
454.36        68.51973
454.80        68.44005
455.24        68.23784
455.69        67.90243
456.13        67.49209
456.58        67.18172
457.02          66.578
457.46        66.54842
457.91        66.84972
458.35        67.41454
458.79        67.47264
459.24         67.0102
459.68        66.32766
460.13        65.68355
460.57        65.36867
461.01        65.51596
461.46        65.64586
461.90        65.84846
462.34        66.72241
462.79        66.41465
463.23        66.58501
463.68        66.62101
464.12         66.4609
464.56        66.06354
465.01         65.5051
465.45        64.90614
465.89        64.52489
466.34        64.36306
466.78         64.5419
467.22        64.94616
467.67        64.43065
468.11        63.91118
468.55        63.91018
468.99        64.53457
469.44        64.61356
469.88         64.1088
470.32         63.6667
470.77        63.40341
471.21        63.23639
471.65        63.18775
472.10        63.27238
472.54        63.42807
472.98        63.51444
473.42        63.47854
473.87        63.52958
474.31        63.57976
474.75        63.16323
475.20        62.50179
475.64         62.4884
476.08        63.02864
476.52        63.09535
476.97        62.60265
477.41        62.33957
477.85        62.51155
478.29        61.93645
478.74        62.21637
479.18        62.97369
479.62         62.6731
480.06        62.80722
480.50        62.73474
480.95        62.74321
481.39         62.8742
481.83        62.16031
482.27        62.16433
482.72        62.53669
483.16        62.18178
483.60        62.22573
484.04        62.14861
484.48        62.53408
484.93        62.94757
485.37        62.34942
485.81        61.93117
486.25        62.20955
486.69        64.43643
487.14        64.96379
487.58        62.74458
488.02        62.00569
488.46        61.47447
488.90        61.52744
489.34         62.4469
489.79        62.74144
490.23        62.53041
490.67        61.92012
491.11        61.22228
491.55        61.03687
491.99        61.31814
492.43        61.28071
492.88          60.918
493.32        60.87475
493.76        61.10301
494.20        61.26586
494.64        61.31248
495.08        61.39755
495.52        61.47507
495.96        61.38626
496.41        61.16934
496.85        61.02597
497.29        60.90698
497.73        60.98761
498.17         60.5118
498.61        60.51358
499.05        60.72232
499.49         60.8819
499.93        60.77452
500.37         60.9081
500.82        61.18639
501.26        61.33663
501.70        61.34166
502.14        61.36225
502.58        61.42262
503.02        61.46615
503.46        61.49586
503.90        61.54607
504.34        61.57033
504.78        61.47197
505.22        61.23521
505.66        60.92687
506.10        60.66325
506.54        60.43795
506.98        60.24379
507.42        60.53341
507.86        60.86442
508.30        60.33185
508.74        60.70454
509.18        60.49872
509.62        60.34275
510.06        60.16667
510.50        60.19395
510.94        60.22244
511.38         60.2588
511.82        60.27725
512.26        60.26301
512.70        60.23193
513.14        60.19708
513.58        60.17992
514.02        60.18734
514.46        60.20847
514.90        60.24203
515.34        60.28885
515.78        60.34294
516.22        60.39973
516.66        60.44519
517.10        60.45718
517.54        60.43105
517.98        60.37449
518.42        60.29682
518.86        60.21429
519.30        60.13641
519.74        60.06314
520.18        60.00396
520.62        59.97004
521.06        59.96496
521.50        59.99126
521.93        60.03966
522.37        60.07413
522.81        60.09274
523.25        60.09436
523.69        60.09719
524.13        60.13406
524.57        60.20334
525.01        60.28533
525.45        60.34192
525.89          60.313
526.32        60.18453
526.76        60.00275
527.20        59.79824
527.64        59.62336
528.08        59.50013
528.52        59.41351
528.96        59.38219
529.40        59.43249
529.83        59.55538
530.27        59.74717
530.71        59.93741
531.15        60.01949
531.59        59.97169
532.03        59.81784
532.46         59.6242
532.90        59.54213
533.34        59.59066
533.78        59.69065
534.22         59.7751
534.66        59.81503
535.09        59.74517
535.53        59.46695
535.97        59.06332
536.41        58.81454
536.85        58.76319
537.28        58.78132
537.72        58.84562
538.16        58.96276
538.60        59.10848
539.04        59.27569
539.47         59.4265
539.91          59.541
540.35        59.59755
540.79            59.6
541.22        59.55894
541.66         59.5174
542.10        59.48221
542.54        59.44729
542.97        59.40468
543.41        59.36899
543.85        59.33384
544.29        59.30767
544.72        59.27921
545.16        59.26395
545.60        59.25457
546.04        59.25675
546.47        59.27757
546.91        59.33817
547.35         59.4341
547.79        59.50927
548.22        59.55513
548.66        59.64829
549.10        59.79602
549.53         59.7483
549.97        59.54939
550.41        59.31204
550.84        59.11926
551.28        59.06873
551.72        59.15124
552.15        59.05278
552.59        59.46591
553.03        59.03077
553.46         59.6571
553.90        59.58329
554.34        59.50255
554.77         59.2712
555.21         59.0638
555.65        59.04034
556.08        59.19075
556.52        59.43928
556.96        59.65261
557.39        59.70308
557.83        59.57626
558.27        59.26132
558.70        58.87105
559.14        58.70953
559.57        58.77723
560.01        58.85187
560.45        58.90535
560.88        59.07587
561.32        59.31806
561.75        59.41965
562.19        59.39468
562.63         59.2705
563.06        59.13406
563.50        59.22754
563.93        59.44874
564.37        59.57989
564.80         59.5948
565.24        59.41937
565.68        58.99262
566.11        59.52297
566.55        58.89556
566.98        58.79727
567.42        58.70811
567.85        58.83311
568.29        59.15807
568.72        59.54978
569.16        60.03829
569.60        60.26147
570.03        60.36198
570.47        60.62023
570.90        61.19273
571.34        60.12155
571.77        60.77444
572.21        61.16973
572.64        60.73203
573.08        61.14709
573.51        60.41409
573.95        60.49411
574.38        60.98754
574.82        61.10886
