SpectraSmart Spectrum 2.9.0.0
--------- Device Information -----------
Spectrum Name :  反射率_0
Saving Time :  2024/04/27 00:00:48
Spectro-Module Model Name : SE2030-DUVN
Spectro-Module Serial Number : OS361AC55029948
Wavelength Start : 200
Wavelength End : 1025
Wavelength Unit : Wavelength(nm)
Spectrum Unit : Reflectance(%)
-----------Spectrum Setting ------------
Integration Time : 20ms
Average : 10
Boxcar : 0
Background removal :  enabled
linearity correction :  enabled
SC :  disabled
Intensity correction :  disabled
DWT denoise :  enabled
savitzky-golay :  disabled
FFT :  disabled
Running average :  disabled
Kalman :  disabled
High pass :  disabled
---------------BEGIN--------------------
Wavelength(nm)             Reflectance(%)
200.29               0
200.75        37.72289
201.21        38.83678
201.67        40.31974
202.13        42.01397
202.58        43.88379
203.04        46.55209
203.50        49.77227
203.96        51.83025
204.42        51.45925
204.88        48.55973
205.34        44.09695
205.80        40.64397
206.26        39.13203
206.72        38.85667
207.18         39.0798
207.64        38.89973
208.10        38.03592
208.55        36.83186
209.01        34.57389
209.47        31.63717
209.93        29.64629
210.39        28.99357
210.85        29.22701
211.31        30.12168
211.77        31.97377
212.23        36.02417
212.69        47.63362
213.14         75.8538
213.60        88.91465
214.06        80.53429
214.52        70.24062
214.98        62.75351
215.44         56.2651
215.90        48.69733
216.36         41.8351
216.81        38.98349
217.27        41.62542
217.73        50.96317
218.19        65.04958
218.65        70.16485
219.11        61.43727
219.57        48.09261
220.02        39.26294
220.48        39.35389
220.94        47.61542
221.40        64.73525
221.86        89.42973
222.32        103.6796
222.77         93.6235
223.23        72.02627
223.69        52.51317
224.15        42.39513
224.61        39.59107
225.06        39.99445
225.52        41.62307
225.98         42.5492
226.44        42.46899
226.90        42.23951
227.36        41.78717
227.81        40.87785
228.27        39.72385
228.73        38.15006
229.19        36.92874
229.65        37.02772
230.10        38.39191
230.56         40.8087
231.02         43.0382
231.48        43.09022
231.93        40.81425
232.39        37.31813
232.85        34.21003
233.31        33.59979
233.77        35.60816
234.22        39.44635
234.68        43.75922
235.14        46.50706
235.60        47.06196
236.05        45.99445
236.51        43.96259
236.97        42.42665
237.43        42.12175
237.88        42.73051
238.34        43.95896
238.80        45.56342
239.26        47.52225
239.71        50.46037
240.17         54.4307
240.63        59.30797
241.08        64.77355
241.54        69.97702
242.00        74.96438
242.46        80.82497
242.91        89.19992
243.37        100.8772
243.83        116.5065
244.28        130.5851
244.74        133.2368
245.20        123.2931
245.66         110.533
246.11         104.236
246.57        105.0319
247.03        110.2117
247.48         114.139
247.94        108.1369
248.40        95.02608
248.85        81.19305
249.31        70.89427
249.77        65.45438
250.22        63.65134
250.68        64.15659
251.14        66.31291
251.59        68.04323
252.05        68.25953
252.51        68.22316
252.96        67.31726
253.42        65.33611
253.88          62.695
254.33         59.4241
254.79        57.83991
255.25        59.68665
255.70        64.49152
256.16        71.36454
256.62        77.27565
257.07        77.68374
257.53        73.80832
257.99        68.39792
258.44        63.70041
258.90        61.85078
259.35        61.83091
259.81        62.93489
260.27        63.83591
260.72        63.04814
261.18        60.89227
261.63        57.90188
262.09        55.29881
262.55        53.83487
263.00        53.33829
263.46        53.50435
263.91        53.52008
264.37        52.67154
264.83        50.92434
265.28        48.65147
265.74        46.56776
266.19        45.25565
266.65         44.8288
267.11        44.92693
267.56        45.17809
268.02        45.01072
268.47        44.27029
268.93        43.19792
269.38         41.9386
269.84        40.75808
270.30        39.73795
270.75        38.77282
271.21        37.94413
271.66        37.33063
272.12        36.92199
272.57        36.68304
273.03        36.43552
273.48         35.8724
273.94        34.99387
274.39         33.8737
274.85        32.77606
275.31        31.94212
275.76        31.39502
276.22        31.07644
276.67        30.82651
277.13        30.49857
277.58         30.0115
278.04        29.44817
278.49        28.83556
278.95        28.31857
279.40        27.87656
279.86        27.52225
280.31        27.14961
280.77        26.70784
281.22        26.16365
281.68        25.60901
282.13        25.09848
282.59         24.7743
283.04        24.62685
283.50        24.62809
283.95        24.69733
284.41        24.71678
284.86        24.65141
285.32        24.55519
285.77        24.46647
286.22        24.49811
286.68         24.6626
287.13        24.87959
287.59        25.10303
288.04        25.22464
288.50        25.23862
288.95        25.15942
289.41        25.03209
289.86        24.85788
290.32        24.69471
290.77        24.54812
291.22        24.47691
291.68        24.55102
292.13        24.78526
292.59        25.19035
293.04        25.75922
293.50         26.4885
293.95        27.35491
294.40        28.35555
294.86        29.45875
295.31        30.60824
295.77        31.79412
296.22        33.00924
296.68        34.28173
297.13        35.64737
297.58        37.12529
298.04        38.70984
298.49        40.37732
298.95        42.10526
299.40         43.8705
299.85        45.68085
300.31        47.54454
300.76        49.45597
301.21        51.41477
301.67        53.42138
302.12        55.42997
302.58        57.45947
303.03        59.46011
303.48        61.45459
303.94        63.45245
304.39        65.40436
304.84        67.33836
305.30        69.27925
305.75        71.21312
306.20        73.20673
306.66        75.27438
307.11        77.35139
307.57        79.39994
308.02        81.25749
308.47        82.91705
308.93        84.41589
309.38        85.81928
309.83        87.34791
310.29         89.0453
310.74        90.84963
311.19        92.57856
311.65        93.90454
312.10        94.74402
312.55        95.19946
313.00        95.55076
313.46        96.23431
313.91        97.32053
314.36        98.70718
314.82        100.1225
315.27         101.136
315.72        101.6154
316.18        101.7244
316.63        101.6748
317.08        101.8466
317.53        102.3434
317.99        103.0373
318.44        103.7854
318.89        104.3282
319.35        104.5868
319.80        104.6562
320.25        104.6535
320.70         104.756
321.16        105.0182
321.61        105.4308
322.06        105.8871
322.51        106.2297
322.97         106.402
323.42        106.4411
323.87        106.5216
324.32        106.9468
324.78        107.7272
325.23        108.8524
325.68        109.9128
326.13        110.2367
326.59        109.6909
327.04         108.522
327.49        107.2863
327.94        106.8897
328.39        107.5445
328.85        108.9537
329.30        110.7338
329.75        111.9136
330.20        112.1658
330.66        111.7432
331.11        111.0586
331.56        110.7037
332.01        110.8838
332.46        111.3836
332.92        112.0012
333.37        112.5787
333.82        112.9675
334.27        113.3041
334.72        113.6006
335.17        113.8337
335.63        114.0193
336.08         114.201
336.53        114.4885
336.98        115.1302
337.43        116.1573
337.88        117.4615
338.34        118.8284
338.79        120.0163
339.24          120.85
339.69        121.3911
340.14         121.628
340.59        121.5701
341.05         121.315
341.50        120.8918
341.95        120.5081
342.40        120.4756
342.85        120.8689
343.30        121.6079
343.75         122.558
344.20        123.4687
344.66        124.2304
345.11        124.8813
345.56        125.3758
346.01         125.663
346.46        125.7683
346.91         125.716
347.36        125.6136
347.81        125.6531
348.26        125.8707
348.72        126.1962
349.17        126.5833
349.62        126.9868
350.07        127.3613
350.52        127.7418
350.97        127.9522
351.42        127.7137
351.87        127.0217
352.32        125.9799
352.77        124.9616
353.22        124.5167
353.67        124.7353
354.13        125.4469
354.58        126.2806
355.03        126.5637
355.48        126.1176
355.93         125.145
356.38        124.0144
356.83         123.282
357.28        123.0665
357.73        123.1669
358.18        123.2954
358.63        123.0048
359.08        122.1821
359.53        121.0003
359.98        119.6835
360.43        118.5352
360.88        117.6378
361.33         116.904
361.78        116.2106
362.23        115.3759
362.68        114.3726
363.13         113.284
363.58        112.2431
364.03        111.4357
364.48          110.88
364.93         110.483
365.38        110.1043
365.83        109.5336
366.28        108.7182
366.73        107.7386
367.18        106.6708
367.63        105.6285
368.08        104.6628
368.53        103.7491
368.98        102.9158
369.43        102.2028
369.88        101.6098
370.33        101.1356
370.78         100.716
371.23        100.2423
371.68        99.67756
372.13        99.02184
372.58        98.33628
373.03         97.7294
373.48        97.21007
373.93        96.73583
374.38        96.19497
374.83        95.41946
375.28         94.3977
375.72        93.19671
376.17        92.02255
376.62        91.06136
377.07        90.37622
377.52         89.9304
377.97        89.63673
378.42        89.36183
378.87        89.05283
379.32        88.70418
379.77        88.40298
380.22         88.2795
380.67        88.32189
381.11        88.50081
381.56        88.51743
382.01        87.99161
382.46        86.90843
382.91        85.47837
383.36        84.09439
383.81        83.28246
384.26        83.11897
384.71        83.41561
385.15         83.9287
385.60        84.22356
386.05        84.14928
386.50        83.82651
386.95        83.30173
387.40        82.65707
387.85        81.96902
388.29        81.18225
388.74        80.49192
389.19        79.96587
389.64        79.61024
390.09         79.3904
390.54        79.25523
390.98        79.08968
391.43        78.89413
391.88        78.68446
392.33        78.44475
392.78        78.12675
393.23        77.73538
393.67        77.32342
394.12        77.00538
394.57        76.63363
395.02        76.29491
395.47          76.332
395.91        76.63322
396.36        76.62997
396.81        76.28849
397.26        75.89989
397.71        75.51736
398.15        75.14952
398.60        74.92956
399.05         74.6051
399.50        74.23708
399.95        74.42391
400.39        74.98891
400.84        74.61399
401.29        73.47161
401.74        73.32288
402.18        74.01883
402.63        73.63425
403.08        72.36816
403.53        71.90896
403.97        72.32759
404.42        72.78243
404.87        73.04067
405.32        73.05663
405.76        72.75372
406.21        72.21191
406.66        71.60598
407.11        71.21567
407.55        71.15189
408.00        71.27864
408.45        71.50317
408.90        71.77171
409.34         71.9022
409.79        71.54896
410.24        70.90004
410.68        70.56963
411.13        70.62717
411.58        70.75656
412.03        70.82342
412.47        70.74134
412.92        70.45272
413.37        70.03637
413.81        69.63032
414.26        69.49281
414.71        69.64085
415.15        70.02609
415.60        70.48851
416.05        70.82249
416.49        70.95416
416.94        70.92841
417.39        70.83022
417.83        70.78229
418.28        70.82542
418.73        70.91026
419.17        71.00344
419.62        71.06091
420.07         71.0584
420.51        70.99905
420.96        70.92294
421.41        70.80571
421.85        70.62949
422.30        70.53886
422.74        70.45731
423.19        70.22508
423.64        69.89522
424.08        69.85097
424.53        70.07497
424.98         70.2722
425.42        70.42866
425.87        70.69153
426.31        70.99652
426.76        71.12127
427.21         71.0563
427.65        70.85465
428.10        70.60172
428.54        70.53684
428.99        70.72756
429.44          70.823
429.88        70.88709
430.33         71.4754
430.77        72.28143
431.22         72.6189
431.66        72.40591
432.11        71.88403
432.56        71.29591
433.00        71.07967
433.45         71.4284
433.89        72.09493
434.34        72.41072
434.78        73.47688
435.23        72.50118
435.67        70.65887
436.12        71.83609
436.57         71.9622
437.01        72.17937
437.46        72.33572
437.90        72.51723
438.35        71.63513
438.79        72.01337
439.24        71.90659
439.68        71.96387
440.13        72.23398
440.57        72.68616
441.02        72.80707
441.46        72.62892
441.91        73.14609
442.35        73.99445
442.80         73.8802
443.24        72.99929
443.69        72.95157
444.13        73.65792
444.58        74.04411
445.02        73.73064
445.47        73.71777
445.91        73.96176
446.36        74.22377
446.80        74.47333
447.24         74.9252
447.69        75.21568
448.13        75.42727
448.58        75.46435
449.02        75.34809
449.47        75.16632
449.91        75.03383
450.36        75.01482
450.80        75.05404
451.25        75.14281
451.69        75.20613
452.13        75.23875
452.58        75.24752
453.02        75.25057
453.47        75.28489
453.91        75.34698
454.36        75.42645
454.80         75.4482
455.24        75.29442
455.69        74.97478
456.13        74.51826
456.58        74.09307
457.02        73.77495
457.46         73.6554
457.91        73.82482
458.35        74.07779
458.79        74.02237
459.24        73.67922
459.68        73.11765
460.13        72.55676
460.57        72.37496
461.01        72.70818
461.46        72.62124
461.90        73.07292
462.34        73.80983
462.79        73.36815
463.23        73.61838
463.68        73.89108
464.12        73.75959
464.56         73.2037
465.01        72.43746
465.45        71.63995
465.89        71.57191
466.34        71.79189
466.78         71.8748
467.22         71.7319
467.67        71.44376
468.11        71.72977
468.55        71.80473
468.99        71.82275
469.44        71.74242
469.88         71.5743
470.32        71.35609
470.77        71.14429
471.21        71.02241
471.65        71.00358
472.10        71.07525
472.54        71.18262
472.98        71.23009
473.42        71.18594
473.87        71.15337
474.31        71.08687
474.75        70.84595
475.20        70.52213
475.64        70.40636
476.08        70.51822
476.52        70.44645
476.97        70.14879
477.41        70.12501
477.85        70.49296
478.29        69.71642
478.74        70.32056
479.18        70.42448
479.62        70.68913
480.06        70.73316
480.50        70.52812
480.95        70.35586
481.39        70.27711
481.83         69.8131
482.27         69.8324
482.72        70.07979
483.16        70.10461
483.60        70.08682
484.04         70.0995
484.48        70.40851
484.93        70.70783
485.37        70.12296
485.81        69.59604
486.25        69.81418
486.69        71.27391
487.14        71.49832
487.58        69.87433
488.02        70.61948
488.46        69.33624
488.90        69.17107
489.34        70.54147
489.79        71.48539
490.23        70.67615
490.67        70.02402
491.11        69.42056
491.55        69.34403
491.99         69.7073
492.43         69.6878
492.88        69.28236
493.32        69.14487
493.76        69.30022
494.20        69.40161
494.64        69.42005
495.08        69.47643
495.52        69.55782
495.96         69.5645
496.41        69.51745
496.85        69.61827
497.29        69.70629
497.73        69.76037
498.17        68.98151
498.61        68.87755
499.05        69.18477
499.49        69.46494
499.93        69.38821
500.37         69.4559
500.82        69.55787
501.26        69.42398
501.70        69.14682
502.14         69.1363
502.58         69.3884
503.02        69.57041
503.46        69.67276
503.90        69.76321
504.34        70.06789
504.78        70.09421
505.22        69.89687
505.66        69.60004
506.10        69.32096
506.54        69.09274
506.98        68.92616
507.42        69.30371
507.86        69.28651
508.30        69.39531
508.74        69.46129
509.18        69.43942
509.62        69.37777
510.06        69.30494
510.50        69.24589
510.94        69.17718
511.38        69.12181
511.82        69.12388
512.26        69.18829
512.70         69.3058
513.14        69.44127
513.58        69.53334
514.02        69.56487
514.46        69.54928
514.90        69.51133
515.34        69.49518
515.78        69.50998
516.22        69.53577
516.66        69.55495
517.10        69.54079
517.54        69.48747
517.98        69.41309
518.42        69.32099
518.86        69.21308
519.30        69.09933
519.74        68.98256
520.18        68.89252
520.62         68.8741
521.06        68.93295
521.50        69.05589
521.93        69.20399
522.37         69.2899
522.81        69.30002
523.25        69.25225
523.69        69.18336
524.13          69.155
524.57        69.17899
525.01        69.22837
525.45        69.27578
525.89        69.27826
526.32        69.21748
526.76        69.13264
527.20        69.02671
527.64        68.90852
528.08        68.79046
528.52        68.67101
528.96        68.58334
529.40        68.57967
529.83        68.65944
530.27        68.80899
530.71        68.96654
531.15        69.03997
531.59        69.00807
532.03        68.89689
532.46        68.73936
532.90        68.63799
533.34        68.60614
533.78        68.57665
534.22        68.53822
534.66        68.55824
535.09        68.57948
535.53        68.45367
535.97        68.20589
536.41        68.05166
536.85        68.01226
537.28         67.9689
537.72        67.94743
538.16        68.04174
538.60        68.24641
539.04        68.52581
539.47         68.7893
539.91        68.94418
540.35        68.95206
540.79        68.84373
541.22         68.6804
541.66        68.58591
542.10        68.58353
542.54        68.63969
542.97        68.69681
543.41        68.69666
543.85        68.61651
544.29        68.49553
544.72        68.35934
545.16        68.28403
545.60         68.2749
546.04        68.31447
546.47        68.39638
546.91        68.51759
547.35        68.66205
547.79        68.79077
548.22        68.87813
548.66        68.95965
549.10        69.05307
549.53        68.94154
549.97        68.70401
550.41        68.45731
550.84         68.2952
551.28        68.48972
551.72        68.57156
552.15        68.74879
552.59        68.95287
553.03        68.43167
553.46        68.86948
553.90        68.78715
554.34        68.67888
554.77        68.58583
555.21        68.57797
555.65        68.51343
556.08         68.6962
556.52        68.81789
556.96        68.91465
557.39        69.02119
557.83        69.07911
558.27          68.879
558.70        68.31631
559.14        68.12247
559.57        68.23115
560.01        68.18859
560.45         68.0484
560.88        68.26925
561.32        68.75742
561.75        69.02972
562.19         69.0337
562.63        68.75158
563.06        68.36139
563.50        68.39814
563.93        68.74888
564.37        68.98152
564.80        69.01879
565.24        68.76502
565.68        68.17043
566.11         68.7382
566.55        68.05263
566.98        67.96979
567.42        67.88642
567.85        68.17451
568.29        68.73188
568.72         69.0763
569.16        69.27325
569.60        69.33002
570.03        69.46643
570.47        69.60909
570.90        69.89636
571.34        69.00587
571.77        69.62531
572.21        69.83607
572.64         69.4498
573.08          70.064
573.51        69.05151
573.95        69.07987
574.38        69.56645
574.82        69.67393
