SpectraSmart Spectrum 2.9.0.0
--------- Device Information -----------
Spectrum Name :  反射率_0
Saving Time :  2024/04/26 23:48:33
Spectro-Module Model Name : SE2030-DUVN
Spectro-Module Serial Number : OS361AC55029948
Wavelength Start : 200
Wavelength End : 1025
Wavelength Unit : Wavelength(nm)
Spectrum Unit : Reflectance(%)
-----------Spectrum Setting ------------
Integration Time : 20ms
Average : 10
Boxcar : 0
Background removal :  enabled
linearity correction :  enabled
SC :  disabled
Intensity correction :  disabled
DWT denoise :  enabled
savitzky-golay :  disabled
FFT :  disabled
Running average :  disabled
Kalman :  disabled
High pass :  disabled
---------------BEGIN--------------------
Wavelength(nm)             Reflectance(%)
200.29               0
200.75        49.61099
201.21        47.28078
201.67        44.73638
202.13        42.94659
202.58        41.89982
203.04        41.36185
203.50        41.83175
203.96        44.37055
204.42        49.25161
204.88        56.21632
205.34        62.73435
205.80        64.60155
206.26        61.20471
206.72        54.38341
207.18        47.31528
207.64        42.23265
208.10        38.90761
208.55        36.65644
209.01        34.75734
209.47        33.36799
209.93        33.08842
210.39        33.94059
210.85         35.6223
211.31        38.58665
211.77        44.14729
212.23        56.14367
212.69          85.672
213.14        136.7105
213.60        136.5692
214.06        101.5808
214.52        77.80755
214.98        68.06407
215.44        65.02204
215.90        64.13075
216.36        63.88194
216.81        62.31773
217.27        58.80626
217.73         54.0798
218.19        47.31194
218.65          39.812
219.11        35.77526
219.57        35.07673
220.02        36.88887
220.48        41.57579
220.94        49.58873
221.40        62.59976
221.86        80.54829
222.32        92.54936
222.77        88.38486
223.23        75.19591
223.69        61.18904
224.15        50.93244
224.61        44.15565
225.06        39.33942
225.52        36.28493
225.98        34.66108
226.44        34.11594
226.90         34.4746
227.36        35.45663
227.81        36.51261
228.27        37.35273
228.73        37.80603
229.19        37.82664
229.65        37.40375
230.10         36.6062
230.56        35.59535
231.02        34.29362
231.48        32.70776
231.93        30.99874
232.39        29.37688
232.85        28.36582
233.31        28.68652
233.77         30.2595
234.22        32.87289
234.68        35.53302
235.14        36.74814
235.60        36.14365
236.05        34.03271
236.51        31.36832
236.97        30.20791
237.43        31.38156
237.88        34.43962
238.34        38.36489
238.80        41.66411
239.26        43.90223
239.71        45.73991
240.17        47.39148
240.63        49.75288
241.08        53.40036
241.54        57.63704
242.00        62.64476
242.46        69.43133
242.91        79.67281
243.37        94.92647
243.83           116.9
244.28        139.9826
244.74         150.881
245.20        144.9465
245.66        130.4887
246.11        117.3761
246.57        107.5494
247.03        99.17536
247.48        89.82973
247.94        77.98061
248.40        66.90299
248.85        58.44682
249.31        53.72413
249.77        52.60567
250.22        54.25031
250.68         58.5843
251.14        64.49225
251.59        67.50917
252.05         65.5793
252.51        61.05193
252.96        56.20596
253.42        53.55765
253.88        52.99921
254.33         53.0002
254.79        54.30082
255.25        57.29908
255.70        61.47231
256.16        66.52761
256.62        69.95422
257.07        68.20374
257.53        62.96247
257.99        56.81141
258.44         51.6757
258.90        49.27108
259.35        48.63479
259.81        49.09234
260.27        49.63339
260.72        49.14677
261.18        47.79376
261.63        45.89734
262.09        44.22083
262.55        43.15484
263.00        42.58895
263.46         42.3703
263.91        42.03728
264.37        41.25147
264.83         40.0011
265.28        38.48637
265.74        37.12014
266.19        36.15934
266.65        35.68139
267.11        35.47731
267.56        35.39707
268.02        35.21163
268.47        34.83604
268.93        34.35513
269.38        33.73778
269.84        32.97978
270.30        32.09454
270.75        31.08543
271.21        30.08471
271.66        29.25162
272.12         28.6249
272.57        28.15202
273.03        27.74277
273.48        27.23945
273.94        26.64269
274.39        25.98207
274.85        25.36285
275.31         24.8223
275.76        24.35402
276.22        23.95372
276.67        23.58391
277.13        23.25407
277.58        22.92655
278.04        22.62719
278.49        22.30129
278.95        21.95631
279.40        21.56109
279.86        21.17161
280.31        20.78322
280.77        20.46418
281.22         20.1935
281.68        19.98196
282.13        19.79516
282.59        19.64398
283.04        19.49835
283.50        19.36442
283.95        19.21973
284.41        19.03385
284.86        18.81459
285.32        18.60819
285.77        18.42616
286.22        18.32401
286.68        18.31544
287.13        18.35516
287.59        18.47198
288.04        18.67542
288.50         18.9575
288.95        19.27641
289.41        19.55978
289.86        19.65459
290.32        19.57922
290.77        19.39217
291.22        19.21734
291.68        19.22957
292.13        19.47298
292.59        19.91512
293.04        20.52257
293.50        21.25038
293.95         22.0596
294.40        22.96531
294.86        23.93286
295.31        24.89672
295.77        25.85506
296.22        26.81655
296.68         27.8282
297.13        28.96043
297.58        30.24062
298.04        31.64833
298.49        33.17031
298.95        34.79524
299.40        36.49049
299.85        38.25242
300.31        40.03191
300.76        41.74235
301.21        43.37458
301.67        44.96279
302.12        46.53832
302.58        48.22537
303.03         50.0113
303.48        51.88824
303.94        53.82049
304.39        55.70157
304.84        57.53316
305.30        59.34893
305.75        61.16093
306.20        63.06373
306.66        65.07008
307.11        67.10703
307.57          69.095
308.02        70.82564
308.47        72.29264
308.93        73.56598
309.38         74.7697
309.83         76.1979
310.29        77.90916
310.74        79.80923
311.19        81.69537
311.65        83.20647
312.10        84.23159
312.55        84.87381
313.00        85.36318
313.46        86.06445
313.91        87.04881
314.36        88.23626
314.82        89.43296
315.27        90.33842
315.72        90.85583
316.18        91.10803
316.63        91.25188
317.08        91.57227
317.53          92.143
317.99        92.86666
318.44         93.6125
318.89        94.14072
319.35        94.38796
319.80         94.4431
320.25        94.43475
320.70        94.56587
321.16        94.88974
321.61        95.37389
322.06        95.91201
322.51        96.34028
322.97        96.59563
323.42        96.73059
323.87         96.8529
324.32        97.15775
324.78         97.6506
325.23        98.33448
325.68         98.9763
326.13        99.20943
326.59        98.95901
327.04        98.37507
327.49        97.75378
327.94        97.58728
328.39        97.99701
328.85        98.81239
329.30        99.86917
329.75        100.6289
330.20        100.9113
330.66        100.8343
331.11        100.6507
331.56        100.7028
332.01        101.0989
332.46        101.7042
332.92        102.3203
333.37        102.7759
333.82        102.9459
334.27        102.9449
334.72        102.8707
335.17        102.8607
335.63        102.9714
336.08          103.22
336.53        103.6176
336.98        104.2252
337.43        105.0292
337.88        105.9828
338.34        106.9791
338.79        107.9475
339.24        108.7715
339.69        109.4529
340.14        109.9078
340.59        110.0314
341.05        109.8721
341.50        109.4879
341.95        109.0991
342.40        109.0377
342.85        109.3877
343.30        110.0592
343.75         110.917
344.20        111.7169
344.66        112.3585
345.11        112.8906
345.56        113.2904
346.01        113.5354
346.46        113.6532
346.91        113.6561
347.36        113.6242
347.81        113.7054
348.26        113.9241
348.72        114.2224
349.17        114.5664
349.62        114.9297
350.07        115.2751
350.52        115.6292
350.97        115.8264
351.42        115.6059
351.87        114.9623
352.32        113.9952
352.77        113.0514
353.22        112.6389
353.67        112.8451
354.13        113.5194
354.58        114.3172
355.03        114.6158
355.48        114.2479
355.93        113.3909
356.38        112.4003
356.83        111.8158
357.28        111.7433
357.73        111.9867
358.18        112.2254
358.63        111.9576
359.08        111.0683
359.53        109.7529
359.98        108.2967
360.43         107.098
360.88        106.2577
361.33        105.6573
361.78        105.1306
362.23        104.4225
362.68        103.4834
363.13        102.4268
363.58         101.395
364.03        100.5856
364.48        100.0331
364.93        99.64244
365.38        99.30845
365.83        98.87903
366.28        98.30376
366.73        97.63538
367.18          96.897
367.63        96.11966
368.08        95.32805
368.53        94.51513
368.98        93.72216
369.43        93.01696
369.88        92.41034
370.33         91.8866
370.78        91.40179
371.23        90.87977
371.68        90.29753
372.13        89.67307
372.58        89.02766
373.03         88.3961
373.48        87.78396
373.93        87.17077
374.38        86.54773
374.83        85.90952
375.28        85.25837
375.72         84.5905
376.17        83.95141
376.62        83.30249
377.07        82.65581
377.52        82.03945
377.97        81.48481
378.42         81.0538
378.87        80.75441
379.32        80.53185
379.77        80.38993
380.22        80.33493
380.67        80.33036
381.11        80.38757
381.56        80.30048
382.01        79.82929
382.46        78.97775
382.91        77.88551
383.36        76.82547
383.81        76.16386
384.26        75.95213
384.71        76.06126
385.15        76.33083
385.60        76.46935
386.05         76.3728
386.50        76.11536
386.95        75.71191
387.40        75.19546
387.85        74.61486
388.29        73.93212
388.74        73.31431
389.19        72.80531
389.64        72.41443
390.09         72.1189
390.54        71.89577
390.98        71.68439
391.43         71.5025
391.88        71.35133
392.33        71.20946
392.78        71.03932
393.23        70.83616
393.67        70.58991
394.12        70.39266
394.57        70.20794
395.02        70.05473
395.47        69.99033
395.91        69.98554
396.36        69.88366
396.81        69.69287
397.26        69.49607
397.71        69.28472
398.15        69.03319
398.60        68.82779
399.05        68.48763
399.50          68.106
399.95        68.11185
400.39        68.38604
400.84         68.1729
401.29        67.50343
401.74        67.05638
402.18        66.88445
402.63         66.5718
403.08        66.20615
403.53        66.08321
403.97        66.20982
404.42        66.49882
404.87        66.79487
405.32        66.84262
405.76        66.58582
406.21        66.15285
406.66        65.67999
407.11        65.39119
407.55        65.39121
408.00        65.54305
408.45        65.76771
408.90        66.10963
409.34          66.351
409.79        65.94623
410.24        65.12792
410.68        64.74508
411.13        64.88033
411.58        65.09431
412.03        65.23792
412.47        65.24902
412.92        65.05676
413.37        64.72785
413.81        64.38656
414.26        64.26897
414.71        64.39385
415.15        64.71564
415.60        65.10486
416.05        65.40417
416.49        65.55488
416.94        65.59517
417.39        65.57896
417.83         65.5777
418.28        65.62311
418.73        65.68431
419.17        65.76019
419.62        65.85907
420.07        65.96432
420.51        66.05155
420.96        66.12894
421.41        66.13453
421.85        66.04135
422.30        65.98882
422.74        65.90273
423.19        65.67046
423.64        65.32398
424.08        65.12155
424.53        65.12594
424.98        65.25417
425.42        65.51285
425.87        66.04256
426.31         66.6516
426.76        66.73465
427.21        66.34148
427.65          66.075
428.10        66.01919
428.54        65.97448
428.99        66.02248
429.44        66.06188
429.88        66.16825
430.33        66.87309
430.77        67.82244
431.22        68.13993
431.66        67.81857
432.11        67.40581
432.56         67.1174
433.00        67.18942
433.45        67.67857
433.89        68.13043
434.34        68.08037
434.78        68.92313
435.23        68.18479
435.67        66.90772
436.12        67.16727
436.57        67.27869
437.01        67.82615
437.46        68.11032
437.90        68.15142
438.35        67.67712
438.79        68.02424
439.24        68.10279
439.68        68.26942
440.13        68.57836
440.57        69.00117
441.02        69.15677
441.46        69.05797
441.91        69.47002
442.35        70.10393
442.80        69.94651
443.24        69.18558
443.69        69.21447
444.13        69.96382
444.58        70.42224
445.02        70.32798
445.47        70.50987
445.91         70.8765
446.36         71.1236
446.80        71.22277
447.24        71.25694
447.69        71.28432
448.13         71.3736
448.58        71.55325
449.02        71.76559
449.47        71.96416
449.91        72.04366
450.36         72.0085
450.80        71.88199
451.25         71.7381
451.69        71.62936
452.13        71.59623
452.58        71.61184
453.02        71.67213
453.47        71.77896
453.91        71.90623
454.36        72.05764
454.80        72.17828
455.24        72.09843
455.69          71.803
456.13        71.50613
456.58        71.29904
457.02        70.64973
457.46        70.29153
457.91        70.47406
458.35        71.06438
458.79        71.03792
459.24        70.39754
459.68        69.58725
460.13        68.90324
460.57        68.63585
461.01        68.92265
461.46         69.1161
461.90        69.65842
462.34        70.47608
462.79        70.39243
463.23        70.47602
463.68        70.33289
464.12        70.06286
464.56        69.65889
465.01        69.07591
465.45        68.44785
465.89        68.15954
466.34        68.13292
466.78        68.30112
467.22        68.67258
467.67        67.79108
468.11        68.02469
468.55        68.09553
468.99        68.56212
469.44        68.65415
469.88        68.35464
470.32        68.05614
470.77        67.83697
471.21        67.70657
471.65        67.68016
472.10         67.7467
472.54        67.87152
472.98        67.95601
473.42        67.95315
473.87         68.0739
474.31        68.18036
474.75        67.72042
475.20        66.91586
475.64        66.71508
476.08        67.10613
476.52        67.13086
476.97        66.71265
477.41        66.71284
477.85        67.18896
478.29        66.64939
478.74        67.19118
479.18        67.89139
479.62        67.23729
480.06         67.2627
480.50        67.34612
480.95        67.32243
481.39          67.133
481.83        67.08328
482.27        66.92149
482.72        66.96828
483.16        66.87067
483.60        66.87039
484.04        66.89812
484.48        67.13039
484.93        67.34211
485.37        67.31516
485.81        66.69073
486.25        66.29878
486.69        66.77235
487.14        67.74208
487.58        66.79924
488.02        67.08541
488.46        65.92614
488.90        66.00549
489.34        67.42764
489.79          67.957
490.23        67.63738
490.67        66.98658
491.11        66.32732
491.55        66.14955
491.99         66.4192
492.43        66.39548
492.88         66.0687
493.32        66.03274
493.76        66.29186
494.20        66.49055
494.64        66.58997
495.08        66.74412
495.52        66.88554
495.96         66.8056
496.41        66.56256
496.85        66.40828
497.29         66.2922
497.73        66.47274
498.17        66.08586
498.61        65.98987
499.05        65.94983
499.49        66.14326
499.93        66.27676
500.37        66.37579
500.82        66.35294
501.26        66.35976
501.70        66.39207
502.14        66.34663
502.58        66.28167
503.02        66.32922
503.46        66.50053
503.90        66.76246
504.34        67.00165
504.78        67.02615
505.22        66.80265
505.66        66.39928
506.10        65.95962
506.54        65.71571
506.98        65.71761
507.42        65.87622
507.86        66.10262
508.30        66.24481
508.74        66.24759
509.18        66.19507
509.62        66.13648
510.06        65.91775
510.50        65.94069
510.94        65.87669
511.38        65.84023
511.82        65.83152
512.26        65.85283
512.70         65.9062
513.14        65.97411
513.58        66.03236
514.02        66.07145
514.46        66.09097
514.90        66.10394
515.34        66.13544
515.78        66.18655
516.22        66.24484
516.66         66.2863
517.10        66.27332
517.54        66.20293
517.98        66.09754
518.42         65.9827
518.86        65.89761
519.30        65.85678
519.74        65.84709
520.18        65.87508
520.62        65.94831
521.06        66.06158
521.50        66.21542
521.93        66.37104
522.37        66.44357
522.81        66.42568
523.25        66.33259
523.69        66.22785
524.13          66.216
524.57        66.31212
525.01        66.47575
525.45         66.6357
525.89        66.67547
526.32        66.56284
526.76        66.36337
527.20        66.12173
527.64        65.91315
528.08          65.767
528.52        65.65707
528.96        65.60207
529.40        65.63062
529.83        65.73291
530.27        65.91051
530.71        66.08457
531.15        66.13246
531.59         66.0344
532.03        65.82349
532.46        65.58419
532.90        65.50038
533.34        65.59391
533.78        65.76562
534.22        65.93473
534.66        66.05898
535.09         66.0592
535.53        65.82848
535.97         65.4379
536.41        65.16851
536.85        65.06441
537.28        64.98813
537.72        64.95435
538.16        65.03789
538.60        65.22372
539.04        65.48547
539.47        65.72621
539.91        65.83601
540.35        65.77843
540.79        65.59386
541.22        65.35483
541.66         65.2037
542.10        65.17275
542.54        65.22272
542.97        65.30738
543.41        65.38275
543.85        65.42024
544.29        65.44704
544.72        65.45155
545.16        65.45262
545.60         65.4412
546.04        65.41263
546.47        65.39251
546.91        65.42003
547.35        65.49497
547.79        65.61063
548.22        65.71566
548.66         65.7113
549.10        65.65796
549.53        65.55594
549.97        65.45258
550.41        65.28201
550.84        65.13712
551.28        65.17762
551.72        65.32625
552.15        65.50164
552.59        65.75599
553.03        65.16873
553.46        65.71533
553.90        65.60183
554.34         65.5739
554.77        65.49435
555.21        65.45271
555.65        65.45808
556.08        65.49076
556.52        65.51511
556.96        65.51694
557.39        65.61588
557.83        65.75079
558.27         65.6198
558.70        65.30869
559.14        65.02912
559.57        65.27525
560.01        65.27516
560.45        65.19628
560.88        65.25185
561.32        65.44587
561.75        65.66958
562.19        65.85474
562.63        65.72292
563.06          65.369
563.50        65.33454
563.93        65.53883
564.37        65.58683
564.80        65.49362
565.24        65.36097
565.68        65.07056
566.11         65.7587
566.55        65.07024
566.98        64.91317
567.42        64.74549
567.85        64.91738
568.29        65.37366
568.72        65.72286
569.16        65.97973
569.60        66.09662
570.03        66.16404
570.47        66.27903
570.90        66.37879
571.34        65.72701
571.77         66.0397
572.21          66.081
572.64        65.96036
573.08        66.35893
573.51         65.7603
573.95        65.84888
574.38        66.28551
574.82        66.28858
