SpectraSmart Spectrum 2.9.0.0
--------- Device Information -----------
Spectrum Name :  反射率_0
Saving Time :  2024/04/26 23:51:21
Spectro-Module Model Name : SE2030-DUVN
Spectro-Module Serial Number : OS361AC55029948
Wavelength Start : 200
Wavelength End : 1025
Wavelength Unit : Wavelength(nm)
Spectrum Unit : Reflectance(%)
-----------Spectrum Setting ------------
Integration Time : 20ms
Average : 10
Boxcar : 0
Background removal :  enabled
linearity correction :  enabled
SC :  disabled
Intensity correction :  disabled
DWT denoise :  enabled
savitzky-golay :  disabled
FFT :  disabled
Running average :  disabled
Kalman :  disabled
High pass :  disabled
---------------BEGIN--------------------
Wavelength(nm)             Reflectance(%)
200.29               0
200.75        44.89704
201.21        46.69566
201.67        49.31691
202.13        51.83079
202.58        54.17294
203.04        57.30914
203.50        61.45287
203.96         65.6889
204.42        68.97098
204.88         70.7094
205.34        70.53027
205.80        69.06966
206.26         66.8837
206.72        64.02811
207.18        61.42686
207.64        59.49694
208.10        58.07683
208.55        57.59064
209.01        56.92179
209.47        54.80241
209.93        52.02317
210.39        49.77462
210.85         49.2586
211.31        51.52631
211.77        57.62848
212.23        71.97884
212.69        107.1618
213.14        162.1472
213.60        151.8447
214.06        107.6675
214.52        80.37801
214.98        69.98697
215.44        67.58514
215.90        67.66245
216.36        69.74697
216.81        73.77892
217.27        79.98794
217.73        91.53186
218.19        104.2567
218.65        100.0482
219.11        78.61208
219.57        54.71476
220.02        40.45237
220.48        40.42608
220.94        52.97025
221.40        79.48763
221.86        118.9479
222.32        144.8743
222.77         134.509
223.23        105.2039
223.69        76.15566
224.15        58.09779
224.61        49.29557
225.06        44.79335
225.52        43.05463
225.98        42.70423
226.44        43.08202
226.90        44.55293
227.36        46.39791
227.81        47.13602
228.27        46.60262
228.73        45.07501
229.19        43.42762
229.65        42.79274
230.10        43.19947
230.56        44.22655
231.02        45.24619
231.48        45.28904
231.93        44.20965
232.39        42.76872
232.85        41.37315
233.31        40.55802
233.77        40.41922
234.22        40.75074
234.68        41.54317
235.14        42.97725
235.60        45.02275
236.05        47.72984
236.51        50.57861
236.97        52.38551
237.43        52.69629
237.88        51.76339
238.34        50.34013
238.80        50.07903
239.26        51.71682
239.71        55.56161
240.17        61.41917
240.63        68.22683
241.08        75.02512
241.54        81.25524
242.00        87.67739
242.46        96.93961
242.91        111.9622
243.37        134.1616
243.83        164.2687
244.28        190.5541
244.74        193.2623
245.20        171.4527
245.66        141.9423
246.11        119.4969
246.57        105.3299
247.03        95.70087
247.48        88.49739
247.94        82.02695
248.40        77.11789
248.85         74.3028
249.31        73.46235
249.77        73.74296
250.22        74.72027
250.68        76.20928
251.14        78.05811
251.59        79.48692
252.05        80.11835
252.51        80.62683
252.96        80.10795
253.42         78.3728
253.88        75.75014
254.33        72.20255
254.79        70.41705
255.25        72.35386
255.70        77.37022
256.16        84.49533
256.62        89.99488
257.07        88.51873
257.53         82.1517
257.99        74.59013
258.44        68.52881
258.90        66.38223
259.35        66.85023
259.81        68.83176
260.27        70.90058
260.72        71.41163
261.18        70.48353
261.63         68.5695
262.09        66.60965
262.55        64.98206
263.00        63.63792
263.46        62.55471
263.91        61.35865
264.37        59.97982
264.83        58.40832
265.28        56.74357
265.74        55.35347
266.19        54.33459
266.65        53.74625
267.11        53.38539
267.56        53.10157
268.02        52.67949
268.47        52.03915
268.93        51.27872
269.38        50.34701
269.84        49.23724
270.30        47.96807
270.75        46.54629
271.21        45.18723
271.66        44.14829
272.12        43.47584
272.57        43.06906
273.03        42.71127
273.48        42.03613
273.94        41.02687
274.39        39.77951
274.85        38.56083
275.31        37.58862
275.76        36.88464
276.22        36.40294
276.67        35.99282
277.13        35.54287
277.58         34.9709
278.04         34.3519
278.49        33.70405
278.95        33.17329
279.40        32.72333
279.86        32.36757
280.31        31.97485
280.77        31.47437
281.22        30.82729
281.68        30.14952
282.13        29.50307
282.59         29.0564
283.04        28.79836
283.50        28.69184
283.95        28.67017
284.41        28.64131
284.86        28.57268
285.32        28.52507
285.77        28.48185
286.22         28.4836
286.68        28.53811
287.13        28.57832
287.59        28.65021
288.04        28.78304
288.50        28.98339
288.95        29.20392
289.41        29.36089
289.86        29.25891
290.32        28.93368
290.77        28.46301
291.22        28.03202
291.68        27.89555
292.13        28.10976
292.59        28.62725
293.04        29.36693
293.50        30.20903
293.95        31.09743
294.40        32.07668
294.86        33.14977
295.31        34.30761
295.77        35.55714
296.22        36.86314
296.68        38.25124
297.13        39.75887
297.58        41.39344
298.04        43.13954
298.49        44.94076
298.95        46.72745
299.40        48.46043
299.85         50.1563
300.31        51.84796
300.76        53.56573
301.21         55.3321
301.67        57.16008
302.12        58.99666
302.58        60.84976
303.03         62.6764
303.48        64.51264
303.94        66.41599
304.39        68.40006
304.84        70.49077
305.30        72.67712
305.75        74.86262
306.20        76.99567
306.66        79.06431
307.11         81.0371
307.57        82.94062
308.02         84.7055
308.47        86.35785
308.93        87.91806
309.38        89.41359
309.83        91.01336
310.29        92.74636
310.74         94.5567
311.19        96.31238
311.65        97.76183
312.10        98.82137
312.55        99.56052
313.00        100.1493
313.46        100.8641
313.91        101.7541
314.36        102.7733
314.82        103.7931
315.27        104.6197
315.72        105.1818
316.18        105.5768
316.63        105.8815
317.08        106.2651
317.53         106.777
317.99        107.3477
318.44         107.937
318.89        108.4501
319.35        108.8479
319.80        109.1663
320.25        109.4186
320.70        109.6263
321.16        109.8063
321.61        110.0013
322.06        110.2058
322.51        110.4251
322.97        110.6459
323.42        110.8589
323.87        111.1412
324.32        111.6412
324.78        112.3255
325.23        113.2298
325.68        114.0359
326.13        114.2306
326.59        113.7274
327.04        112.7289
327.49        111.6917
327.94        111.3693
328.39        111.9411
328.85        113.1564
329.30        114.7362
329.75        115.8851
330.20        116.3212
330.66        116.2245
331.11        115.9045
331.56        115.7911
332.01        116.0364
332.46        116.4712
332.92        116.9204
333.37         117.286
333.82        117.4526
334.27        117.5424
334.72        117.6103
335.17        117.7019
335.63        117.8509
336.08         118.108
336.53        118.5225
336.98        119.2305
337.43        120.2341
337.88        121.4437
338.34        122.7241
338.79        123.9778
339.24        125.0556
339.69        125.9688
340.14         126.582
340.59        126.7106
341.05        126.4083
341.50        125.7634
341.95         125.112
342.40        124.9644
342.85        125.4408
343.30        126.4011
343.75        127.6055
344.20        128.6288
344.66          129.32
345.11        129.7868
345.56        130.0727
346.01        130.2621
346.46         130.418
346.91        130.5124
347.36        130.6076
347.81        130.8315
348.26         131.189
348.72        131.6219
349.17        132.0774
349.62        132.5005
350.07        132.8465
350.52        133.1528
350.97        133.2475
351.42        132.8648
351.87        132.0173
352.32          130.82
352.77        129.6782
353.22        129.1809
353.67        129.4236
354.13        130.2259
354.58        131.1829
355.03        131.5597
355.48        131.1566
355.93        130.1859
356.38        129.0404
356.83        128.3202
357.28         128.149
357.73        128.3033
358.18        128.4717
358.63        128.1686
359.08        127.2787
359.53        126.0071
359.98        124.5856
360.43        123.3269
360.88        122.3208
361.33        121.4635
361.78        120.6841
362.23        119.8859
362.68        119.0388
363.13        118.1964
363.58        117.3615
364.03        116.5138
364.48        115.6458
364.93        114.7422
365.38        113.8256
365.83        112.9556
366.28        112.1501
366.73        111.3966
367.18        110.6637
367.63        109.8926
368.08        109.0692
368.53        108.2195
368.98        107.3643
369.43        106.5316
369.88        105.7337
370.33         104.959
370.78        104.2159
371.23        103.5299
371.68        102.8983
372.13        102.3011
372.58        101.7158
373.03        101.1001
373.48        100.4344
373.93        99.73363
374.38        98.97054
374.83        98.11315
375.28        97.17838
375.72        96.16676
376.17        95.23241
376.62        94.48767
377.07        93.96274
377.52        93.64304
377.97        93.40904
378.42        93.07615
378.87        92.59648
379.32        91.98305
379.77        91.40968
380.22        91.13449
380.67        91.17294
381.11        91.47398
381.56        91.65706
382.01        91.19577
382.46        90.03686
382.91        88.43419
383.36        86.87643
383.81        86.02415
384.26        85.97676
384.71        86.50585
385.15        87.26524
385.60        87.65186
386.05         87.4772
386.50        86.91424
386.95        86.13677
387.40        85.42248
387.85        84.87291
388.29        84.34699
388.74        83.91171
389.19        83.45251
389.64        82.94745
390.09        82.43449
390.54        81.95549
390.98         81.5481
391.43        81.26522
391.88        81.07801
392.33        80.95946
392.78        80.75253
393.23        80.42091
393.67        80.17886
394.12        80.17332
394.57        79.37549
395.02        79.54951
395.47        79.24923
395.91        79.00641
396.36        78.77157
396.81        78.58768
397.26        78.45021
397.71        78.29019
398.15        78.06326
398.60        77.85312
399.05         77.4584
399.50        77.00629
399.95        77.04817
400.39        77.44799
400.84        77.24081
401.29        76.46942
401.74        76.05987
402.18        76.02798
402.63        75.65922
403.08        75.06433
403.53        74.79747
403.97        74.88068
404.42        75.09917
404.87        75.29032
405.32        75.23489
405.76        74.87403
406.21        74.35529
406.66        73.82128
407.11        73.44516
407.55        73.35978
408.00        73.56085
408.45        73.92569
408.90        74.27882
409.34        74.38584
409.79        73.83784
410.24        72.92225
410.68        72.49738
411.13        72.65714
411.58        72.96923
412.03        73.21461
412.47        73.19936
412.92        72.82745
413.37        72.21933
413.81        71.58931
414.26        71.30589
414.71        71.40848
415.15        71.81097
415.60        72.31757
416.05        72.66375
416.49        72.75414
416.94        72.66185
417.39        72.48114
417.83         72.3373
418.28        72.28822
418.73        72.29823
419.17        72.35238
419.62        72.43771
420.07        72.52216
420.51        72.57557
420.96        72.65062
421.41        72.69527
421.85        72.66316
422.30         72.8308
422.74        73.00641
423.19        72.53459
423.64        71.57321
424.08        71.29673
424.53         71.7702
424.98        71.67133
425.42        71.84351
425.87        72.17187
426.31        72.75564
426.76        72.80715
427.21        72.37968
427.65        72.07341
428.10        71.96523
428.54        71.94699
428.99        72.08738
429.44        72.11428
429.88        72.13948
430.33        72.93842
430.77        74.05267
431.22        74.31108
431.66        73.67294
432.11        72.76831
432.56        72.00646
433.00        71.84756
433.45        72.43909
433.89        73.39343
434.34        74.17332
434.78        74.71162
435.23        73.34625
435.67        71.35048
436.12         72.2178
436.57        72.61321
437.01        73.28152
437.46        73.68126
437.90        73.84274
438.35        72.49088
438.79        72.92969
439.24        72.71099
439.68         72.7627
440.13        73.15205
440.57        73.79035
441.02         73.8978
441.46        73.52767
441.91        74.07933
442.35        75.13693
442.80        74.92999
443.24        73.73735
443.69        73.75256
444.13        74.85705
444.58        75.27127
445.02         74.9164
445.47        74.82204
445.91        75.06612
446.36         75.1948
446.80        75.16369
447.24        75.72757
447.69        75.66451
448.13        75.81569
448.58        75.83304
449.02        75.74038
449.47        75.59658
449.91        75.48871
450.36        75.47312
450.80        75.49098
451.25        75.53658
451.69        75.53619
452.13        75.49448
452.58         75.4302
453.02        75.36321
453.47        75.33891
453.91        75.35159
454.36        75.36597
454.80        75.35358
455.24        75.24023
455.69        74.99539
456.13        74.72588
456.58        74.52426
457.02        73.87966
457.46        73.38594
457.91         73.6368
458.35        74.39578
458.79        74.48565
459.24         73.9274
459.68        73.07982
460.13         72.1983
460.57        72.31054
461.01        72.43356
461.46        72.12283
461.90        72.99295
462.34        73.38256
462.79        73.40916
463.23        73.46088
463.68        73.36551
464.12        73.12627
464.56        72.69021
465.01        71.90229
465.45        71.00311
465.89        70.77112
466.34        71.09502
466.78        71.51627
467.22        71.89812
467.67         71.2616
468.11        70.98112
468.55        70.87528
468.99        71.25116
469.44        71.21767
469.88        70.77461
470.32        70.45553
470.77        70.32034
471.21        70.24007
471.65        70.21777
472.10         70.2339
472.54        70.35078
472.98        70.37048
473.42        70.29495
473.87        70.23637
474.31         70.1469
474.75        69.83437
475.20          69.411
475.64        69.30915
476.08        69.53745
476.52        69.49146
476.97        69.09438
477.41        69.25552
477.85        69.49372
478.29        68.76233
478.74        69.45197
479.18         69.6195
479.62        69.41001
480.06        69.17506
480.50        69.22532
480.95        69.09161
481.39        68.91864
481.83        68.88145
482.27        68.33349
482.72        68.97789
483.16        69.00237
483.60        68.45892
484.04        68.94697
484.48         69.1084
484.93        69.42545
485.37        68.79986
485.81        68.85028
486.25        68.39285
486.69         70.3073
487.14        71.42607
487.58        68.77068
488.02        68.94086
488.46        68.26582
488.90        68.00312
489.34        69.21033
489.79        69.61575
490.23        68.97311
490.67        68.58086
491.11         68.3631
491.55        68.07166
491.99        67.73389
492.43        67.45907
492.88        67.30573
493.32        67.39025
493.76        67.65679
494.20        67.86757
494.64        67.96538
495.08        68.05782
495.52        68.12071
495.96        68.03294
496.41        67.83469
496.85        67.73276
497.29        67.63882
497.73        67.67163
498.17        67.01011
498.61        66.92306
499.05        67.13168
499.49        67.27663
499.93        67.11033
500.37        67.24887
500.82        67.55987
501.26         67.6387
501.70        67.49209
502.14        67.43745
502.58        67.51813
503.02        67.58679
503.46        67.64789
503.90        67.80238
504.34        67.97079
504.78        67.94703
505.22        67.67549
505.66        67.32866
506.10        67.09548
506.54        66.79064
506.98        66.35954
507.42        67.29818
507.86        67.52153
508.30        66.84069
508.74        67.50005
509.18        67.26841
509.62        67.04632
510.06        66.85751
510.50        66.77299
510.94        66.71042
511.38        66.65438
511.82        66.66811
512.26        66.75357
512.70        66.87431
513.14        66.97707
513.58        67.07896
514.02        67.18671
514.46        66.86597
514.90         66.9437
515.34        66.87983
515.78        66.92227
516.22        67.01809
516.66        67.12852
517.10        67.17618
517.54        67.13538
517.98        67.04634
518.42        66.92519
518.86        66.79658
519.30        66.67883
519.74        66.56592
520.18        66.48694
520.62        66.48622
521.06        66.56799
521.50        66.72256
521.93        66.90133
522.37        67.00051
522.81        67.00227
523.25        66.92487
523.69        66.82223
524.13        66.78432
524.57        66.82615
525.01        66.91212
525.45        66.98705
525.89        66.96277
526.32        66.81588
526.76        66.60561
527.20        66.37122
527.64        66.17641
528.08        66.04695
528.52        65.96314
528.96        65.93662
529.40        65.98522
529.83        66.09673
530.27        66.26842
530.71        66.43963
531.15        66.51985
531.59        66.48998
532.03        66.37109
532.46        66.20773
532.90        66.12096
533.34        66.12715
533.78        66.15722
534.22        66.17841
534.66        66.22159
535.09        66.22511
535.53        66.05389
535.97        65.75993
536.41        65.59498
536.85         65.5862
537.28         65.6037
537.72        65.63696
538.16        65.72005
538.60        65.83737
539.04        65.97727
539.47         66.0899
539.91        66.14163
540.35        66.11109
540.79        66.01308
541.22        65.88686
541.66        65.81868
542.10        65.82242
542.54        65.87915
542.97        65.94311
543.41        65.97209
543.85        65.94527
544.29        65.88591
544.72        65.81352
545.16        65.79874
545.60        65.83823
546.04        65.91167
546.47        65.99865
546.91        66.06681
547.35        66.10381
547.79        66.11288
548.22        66.08617
548.66        66.04935
549.10        66.06541
549.53        65.96524
549.97        65.80495
550.41        65.74202
550.84        65.78802
551.28        65.77602
551.72        65.69164
552.15        65.74769
552.59        65.99972
553.03        65.74359
553.46        66.16207
553.90        66.15617
554.34        66.06496
554.77        65.94994
555.21         65.8925
555.65        65.74758
556.08        65.89222
556.52         65.9656
556.96        66.02095
557.39        66.12597
557.83        66.21194
558.27        65.94145
558.70        65.43665
559.14        65.24908
559.57        65.35892
560.01        65.57611
560.45          65.554
560.88        65.64805
561.32        65.76965
561.75        65.93311
562.19        66.09358
562.63        65.91935
563.06        65.52323
563.50        65.50558
563.93        65.76764
564.37        65.83152
564.80          65.713
565.24        65.57597
565.68        65.30294
566.11        66.00578
566.55        65.32129
566.98        65.16574
567.42        65.00313
567.85        65.21316
568.29         65.7324
568.72        66.11498
569.16        66.37448
569.60        66.49208
570.03        66.68032
570.47        66.74951
570.90        66.84261
571.34        66.36896
571.77        66.79006
572.21        67.11519
572.64        67.08194
573.08        67.47857
573.51        66.45856
573.95        66.45421
574.38        67.19467
574.82        66.94176
