SpectraSmart Spectrum 2.9.0.0
--------- Device Information -----------
Spectrum Name :  反射率_0
Saving Time :  2024/04/26 23:58:04
Spectro-Module Model Name : SE2030-DUVN
Spectro-Module Serial Number : OS361AC55029948
Wavelength Start : 200
Wavelength End : 1025
Wavelength Unit : Wavelength(nm)
Spectrum Unit : Reflectance(%)
-----------Spectrum Setting ------------
Integration Time : 20ms
Average : 10
Boxcar : 0
Background removal :  enabled
linearity correction :  enabled
SC :  disabled
Intensity correction :  disabled
DWT denoise :  enabled
savitzky-golay :  disabled
FFT :  disabled
Running average :  disabled
Kalman :  disabled
High pass :  disabled
---------------BEGIN--------------------
Wavelength(nm)             Reflectance(%)
200.29               0
200.75        28.44024
201.21        27.36758
201.67        26.86703
202.13        26.95263
202.58        27.48761
203.04        28.76738
203.50         31.0092
203.96        33.99542
204.42        37.25328
204.88        40.58179
205.34        42.83393
205.80          42.686
206.26        40.23964
206.72        36.15279
207.18        32.44685
207.64        30.71363
208.10        30.95736
208.55        33.48832
209.01        37.16144
209.47        37.56019
209.93        33.66607
210.39        28.88165
210.85        26.10711
211.31        26.93086
211.77        32.11026
212.23        45.30639
212.69        79.60444
213.14        139.9012
213.60        141.8613
214.06        103.2688
214.52         75.7503
214.98        62.62713
215.44        56.08334
215.90        50.78142
216.36         47.0443
216.81        46.28886
217.27        49.18256
217.73        57.71622
218.19        68.88046
218.65        67.97391
219.11        53.16096
219.57        35.72292
220.02        25.04283
220.48        24.74608
220.94        33.68119
221.40        52.74082
221.86        81.12651
222.32        99.74797
222.77        92.35083
223.23        71.53979
223.69        51.34907
224.15        39.70942
224.61        35.10584
225.06        33.60265
225.52        33.82236
225.98        34.57565
226.44        35.41763
226.90        36.80275
227.36        38.13059
227.81         38.1835
228.27        36.95316
228.73        34.76868
229.19        32.64714
229.65        31.79667
230.10        32.27758
230.56        33.73695
231.02        35.35366
231.48        35.81985
231.93        34.90973
232.39         33.3384
232.85        31.95733
233.31        31.90639
233.77        33.26481
234.22        35.63797
234.68        38.23651
235.14        39.95026
235.60        40.46431
236.05        40.10457
236.51        39.36057
236.97        39.24052
237.43        40.15116
237.88        41.79684
238.34        43.79624
238.80        45.81333
239.26        47.80618
239.71        50.33565
240.17        53.19038
240.63        55.93059
241.08        58.28643
241.54        59.68084
242.00        61.19917
242.46        65.52394
242.91        75.03645
243.37        91.50509
243.83         116.416
244.28        141.1998
244.74        150.0948
245.20        140.2604
245.66        122.8569
246.11        110.0117
246.57        103.4877
247.03        99.94306
247.48        97.00348
247.94        91.93163
248.40        85.96193
248.85        81.06227
249.31         78.0407
249.77        76.25823
250.22        75.00465
250.68         73.5993
251.14        71.92538
251.59        70.45421
252.05         69.8884
252.51        70.60959
252.96        70.61082
253.42        68.32979
253.88        64.19225
254.33        58.94416
254.79        55.53896
255.25        56.15738
255.70         60.2378
256.16        66.63048
256.62        71.99979
257.07        71.52715
257.53        66.71412
257.99        60.68368
258.44        55.81331
258.90        54.24181
259.35        54.88804
259.81        56.80718
260.27         58.6549
260.72        58.87878
261.18        57.62663
261.63        55.40397
262.09         53.2345
262.55        51.68259
263.00        50.67617
263.46        50.07035
263.91        49.32512
264.37        48.06219
264.83        46.29324
265.28        44.26286
265.74        42.51703
266.19        41.44592
266.65        41.12039
267.11        41.25137
267.56        41.53213
268.02        41.48532
268.47        40.96936
268.93         40.1637
269.38        39.15484
269.84         38.1287
270.30        37.15274
270.75        36.16204
271.21        35.26188
271.66        34.57047
272.12        34.09042
272.57        33.76311
273.03        33.44697
273.48         32.8945
273.94        32.10203
274.39        31.13682
274.85        30.15393
275.31        29.24501
275.76        28.43633
276.22        27.73198
276.67        27.13194
277.13        26.70761
277.58        26.41153
278.04        26.23947
278.49        26.06985
278.95        25.82098
279.40        25.42872
279.86        24.97531
280.31           24.47
280.77        24.01745
281.22        23.61082
281.68         23.2696
282.13        22.96492
282.59        22.72362
283.04         22.5204
283.50        22.37059
283.95        22.26141
284.41        22.17581
284.86        22.11019
285.32        22.08894
285.77        22.09737
286.22        22.16877
286.68        22.30308
287.13         22.4483
287.59         22.6151
288.04        22.78348
288.50        22.95254
288.95        23.09673
289.41        23.18529
289.86         23.1155
290.32        22.92807
290.77        22.67388
291.22        22.46736
291.68        22.46233
292.13        22.69492
292.59         23.1396
293.04        23.77061
293.50        24.55628
293.95        25.45407
294.40        26.46758
294.86        27.54076
295.31        28.57599
295.77        29.56772
296.22        30.53706
296.68        31.55118
297.13        32.70992
297.58        34.05072
298.04        35.54189
298.49        37.16745
298.95         38.9142
299.40         40.7385
299.85        42.63174
300.31        44.52542
300.76        46.29864
301.21        47.94178
301.67        49.50814
302.12        51.04247
302.58        52.69856
303.03         54.4702
303.48        56.33708
303.94        58.28427
304.39        60.22859
304.84        62.16877
305.30        64.13287
305.75        66.06599
306.20        67.96677
306.66        69.83752
307.11         71.6311
307.57        73.36346
308.02        74.96624
308.47        76.45856
308.93        77.86668
309.38        79.20923
309.83        80.62376
310.29        82.13798
310.74         83.7077
311.19        85.23196
311.65        86.51537
312.10        87.48634
312.55        88.19122
313.00        88.76762
313.46        89.43999
313.91        90.24622
314.36        91.15756
314.82        92.04642
315.27        92.72123
315.72        93.12034
316.18        93.33104
316.63         93.4744
317.08        93.78172
317.53         94.3089
317.99        94.97925
318.44        95.66856
318.89        96.14587
319.35        96.34889
319.80        96.35066
320.25        96.28908
320.70        96.38508
321.16        96.69558
321.61        97.19729
322.06         97.7461
322.51        98.11388
322.97        98.23258
323.42        98.17173
323.87        98.12823
324.32        98.44315
324.78         99.1438
325.23        100.1853
325.68        101.2051
326.13        101.6083
326.59        101.2583
327.04        100.3805
327.49        99.38617
327.94        98.94915
328.39        99.24585
328.85        100.0482
329.30        101.1649
329.75        102.0042
330.20        102.3529
330.66        102.3523
331.11        102.2173
331.56        102.2195
332.01        102.4595
332.46        102.8165
332.92        103.1631
333.37        103.4617
333.82        103.6328
334.27        103.7684
334.72          103.91
335.17        104.0937
335.63         104.339
336.08        104.6785
336.53        105.1611
336.98        105.9153
337.43        106.9329
337.88        108.1293
338.34        109.3207
338.79        110.3177
339.24        110.9821
339.69        111.3724
340.14        111.4913
340.59        111.3709
341.05        111.1091
341.50        110.7258
341.95        110.4275
342.40        110.5202
342.85        111.0608
343.30        111.9608
343.75        113.0234
344.20        113.9018
344.66        114.4754
345.11        114.8188
345.56        114.9822
346.01        115.0676
346.46        115.1401
346.91        115.1842
347.36        115.2437
347.81        115.4031
348.26        115.6695
348.72        116.0102
349.17        116.4061
349.62        116.8522
350.07        117.3126
350.52        117.7902
350.97        118.1085
351.42        117.9959
351.87        117.4348
352.32        116.5242
352.77        115.5963
353.22        115.1352
353.67        115.2349
354.13        115.7665
354.58        116.4158
355.03        116.6113
355.48        116.2037
355.93        115.3504
356.38        114.4136
356.83        113.9408
357.28        114.0248
357.73         114.464
358.18        114.8682
358.63        114.6218
359.08        113.5953
359.53        112.0256
359.98        110.2998
360.43        108.9711
360.88        108.1751
361.33        107.7476
361.78        107.4495
362.23         106.905
362.68        106.0249
363.13        104.9543
363.58        103.8726
364.03        103.0367
364.48        102.4951
364.93        102.1273
365.38        101.7976
365.83        101.3111
366.28        100.6125
366.73        99.78165
367.18        98.87786
367.63        97.98285
368.08        97.13593
368.53          96.315
368.98        95.54684
369.43        94.87338
369.88        94.29653
370.33         93.8123
370.78        93.36723
371.23        92.87095
371.68          92.295
372.13          91.645
372.58        90.97165
373.03         90.3624
373.48        89.82542
373.93        89.32592
374.38        88.78293
374.83        88.07484
375.28        87.19453
375.72        86.19114
376.17        85.21738
376.62        84.39017
377.07        83.75574
377.52        83.29182
377.97        82.95642
378.42        82.69048
378.87        82.45702
379.32        82.22958
379.77        82.04235
380.22        81.94623
380.67        81.92102
381.11        81.96819
381.56        81.85742
382.01        81.31873
382.46        80.35704
382.91        79.12643
383.36        77.96124
383.81        77.30949
384.26        77.22704
384.71        77.55951
385.15         78.0509
385.60        78.24773
386.05        78.01662
386.50        77.49191
386.95        76.80527
387.40         76.1706
387.85        75.66985
388.29        75.19018
388.74        74.81873
389.19        74.48625
389.64        74.17605
390.09        73.91271
390.54         73.6744
390.98        73.39787
391.43        73.10452
391.88        72.79012
392.33        72.50938
392.78        72.24217
393.23        71.97462
393.67        71.91236
394.12        72.04353
394.57        71.42981
395.02        70.89742
395.47        70.76929
395.91        71.17481
396.36        71.20346
396.81        70.82689
397.26        70.53976
397.71         70.3707
398.15        70.13527
398.60        69.92278
399.05        69.71671
399.50        69.51472
399.95        69.37621
400.39        69.29922
400.84        69.06245
401.29        68.70952
401.74          68.606
402.18        68.67306
402.63        68.30835
403.08        67.64326
403.53         67.3464
403.97         67.4464
404.42        67.58883
404.87        67.66119
405.32        67.59121
405.76         67.3366
406.21        67.05791
406.66        66.78387
407.11        66.40725
407.55        66.09578
408.00        66.10852
408.45         66.4162
408.90        66.92467
409.34        67.32101
409.79        66.86024
410.24        65.80548
410.68         65.2934
411.13        65.41938
411.58        65.54504
412.03        65.55133
412.47        65.54757
412.92        65.47683
413.37         65.3399
413.81        65.20351
414.26        65.23121
414.71        65.41962
415.15        65.74083
415.60        66.08092
416.05        66.31317
416.49        66.39431
416.94        66.35826
417.39        66.25646
417.83        66.15242
418.28        66.08392
418.73        66.03912
419.17         66.0358
419.62        66.10334
420.07        66.22462
420.51        66.36445
420.96        66.52505
421.41        66.59902
421.85        66.54497
422.30        66.60818
422.74        66.67593
423.19        66.36452
423.64        65.79758
424.08        65.73507
424.53        66.18237
424.98        66.45004
425.42        66.48377
425.87         66.9099
426.31        67.55067
426.76        67.28323
427.21        66.35979
427.65        66.32678
428.10         67.0765
428.54        67.35709
428.99        67.18147
429.44        66.89496
429.88        66.75441
430.33        67.50362
430.77        68.71921
431.22        69.22639
431.66        68.92561
432.11        68.23142
432.56        67.49216
433.00        67.51993
433.45        68.48799
433.89        69.10284
434.34        69.34316
434.78        70.36121
435.23        69.05957
435.67        66.91886
436.12        67.99973
436.57        68.35271
437.01        69.07005
437.46        69.48111
437.90        69.60762
438.35        68.74384
438.79        69.04252
439.24        68.90723
439.68        68.94059
440.13        69.19365
440.57        69.65099
441.02         69.8048
441.46        69.68982
441.91        70.36941
442.35         71.4126
442.80        71.27686
443.24        70.20445
443.69        70.12948
444.13        71.01128
444.58        71.39024
445.02        71.23158
445.47        71.37834
445.91        71.82866
446.36        72.16566
446.80        72.34071
447.24        72.55067
447.69        72.82043
448.13        72.66849
448.58         72.9136
449.02        72.89041
449.47        72.85916
449.91        72.80721
450.36        72.77276
450.80        72.74113
451.25        72.74515
451.69         72.7693
452.13        72.83913
452.58        72.99188
453.02        73.18645
453.47        73.32254
453.91        73.36472
454.36        73.35127
454.80        73.28635
455.24        73.10329
455.69        72.80999
456.13        72.59496
456.58        72.49989
457.02        71.96459
457.46        71.22885
457.91        71.58495
458.35        72.22255
458.79        72.29403
459.24        71.63466
459.68        70.86777
460.13        70.23866
460.57        69.93707
461.01         70.1105
461.46        70.25086
461.90        70.14279
462.34        71.57235
462.79        70.95651
463.23        71.24538
463.68        71.30679
464.12        71.19481
464.56         70.8254
465.01        70.08499
465.45        69.27844
465.89        68.87614
466.34        68.84207
466.78        69.18112
467.22        69.85428
467.67        68.85272
468.11        69.01779
468.55        69.12013
468.99        69.36323
469.44        69.39705
469.88        69.06573
470.32        68.78008
470.77         68.5816
471.21        68.46928
471.65        68.46193
472.10        68.39832
472.54        68.54486
472.98        68.60653
473.42        68.62435
473.87        68.76745
474.31         68.8942
474.75        68.48041
475.20        67.72591
475.64        67.51141
476.08        67.83389
476.52        67.79646
476.97        67.35229
477.41        67.24671
477.85        67.68824
478.29        66.96017
478.74        68.22912
479.18        68.26263
479.62        67.92747
480.06        67.81789
480.50        67.88414
480.95         68.0113
481.39        68.20051
481.83        67.52585
482.27        67.58524
482.72        67.79577
483.16        67.71743
483.60        67.20309
484.04        67.37692
484.48        67.60087
484.93        68.05612
485.37        67.84068
485.81        67.31248
486.25        66.91982
486.69        68.03972
487.14        68.55993
487.58        67.40578
488.02        68.03856
488.46        66.62134
488.90        66.82965
489.34        68.15963
489.79        69.06501
490.23        68.44224
490.67        67.79268
491.11        67.14678
491.55        67.03295
491.99        67.36949
492.43        67.30137
492.88        66.82101
493.32        66.58672
493.76        66.66393
494.20        66.76468
494.64        66.87419
495.08        67.11709
495.52        67.37701
495.96         67.4044
496.41        67.20155
496.85        66.94269
497.29        66.65935
497.73         66.7463
498.17        66.37226
498.61        66.53981
499.05        66.88747
499.49        67.02019
499.93        66.72934
500.37        66.84648
500.82        67.24169
501.26        67.27764
501.70        66.98653
502.14        66.91798
502.58        67.10529
503.02         67.2226
503.46        67.26633
503.90        67.42759
504.34         67.6089
504.78        67.57606
505.22        67.29139
505.66        66.81886
506.10        66.36156
506.54        66.20845
506.98         66.2732
507.42        66.95696
507.86         66.5694
508.30        66.72824
508.74        66.91938
509.18        66.96452
509.62         66.8611
510.06          66.765
510.50        66.71175
510.94        66.63452
511.38         66.5657
511.82        66.56062
512.26        66.62534
512.70        66.75787
513.14        66.90353
513.58        66.96379
514.02        66.91864
514.46        66.79426
514.90        66.65632
515.34        66.61348
515.78        66.68681
516.22        66.83585
516.66         66.9932
517.10        67.05145
517.54        66.98575
517.98        66.83959
518.42         66.6584
518.86        66.51274
519.30        66.42913
519.74        66.38467
520.18        66.38303
520.62        66.42618
521.06        66.50935
521.50        66.64492
521.93        66.79309
522.37        66.85838
522.81        66.83231
523.25        66.73351
523.69        66.62801
524.13        66.62308
524.57        66.73442
525.01        66.92052
525.45        67.10397
525.89           67.16
526.32        67.05237
526.76        66.84447
527.20        66.59171
527.64        66.38595
528.08         66.2615
528.52        66.19222
528.96        66.17203
529.40         66.1983
529.83        66.25408
530.27        66.33112
530.71        66.41038
531.15        66.48165
531.59        66.53437
532.03        66.55264
532.46        66.52648
532.90        66.49773
533.34         66.4621
533.78        66.37639
534.22        66.24624
534.66        66.16088
535.09        66.08064
535.53         65.8613
535.97        65.54395
536.41         65.3614
536.85        65.33649
537.28        65.34673
537.72        65.39896
538.16        65.55103
538.60        65.78425
539.04        66.06987
539.47        66.31795
539.91        66.43783
540.35        66.39749
540.79         66.2293
541.22        66.00891
541.66        65.88306
542.10        65.88096
542.54        65.96323
542.97        66.06325
543.41        66.10513
543.85        66.05853
544.29        65.96428
544.72        65.84589
545.16        65.77563
545.60        65.76029
546.04        65.78353
546.47        65.84218
546.91        65.94202
547.35        66.07128
547.79        66.18441
548.22        66.26063
548.66        66.35701
549.10        66.48608
549.53        66.38872
549.97        66.14143
550.41        65.90773
550.84        65.76328
551.28        65.84223
551.72        66.09068
552.15        66.06313
552.59        66.10672
553.03        66.05125
553.46        66.20192
553.90        66.19625
554.34        66.07902
554.77        66.00463
555.21        66.11488
555.65        65.81837
556.08        66.61652
556.52         66.6908
556.96        66.50156
557.39        66.50986
557.83        66.68034
558.27        66.47678
558.70        65.96765
559.14        65.68227
559.57        65.65842
560.01        65.76058
560.45        65.91946
560.88        66.03493
561.32        66.11045
561.75        66.18145
562.19        66.26307
562.63         66.2823
563.06        66.24699
563.50         66.2318
563.93         66.1869
564.37        66.18851
564.80        66.24751
565.24        66.13302
565.68        65.74171
566.11        66.41507
566.55        65.77622
566.98        65.70187
567.42        65.59942
567.85        65.73009
568.29        66.06965
568.72        66.34326
569.16        66.57285
569.60        66.78918
570.03        66.74455
570.47        66.85664
570.90        67.13068
571.34        66.33006
571.77        66.91015
572.21        67.03546
572.64        66.86002
573.08        67.21806
573.51        66.55221
573.95        66.48466
574.38        66.81234
574.82        66.79893
