SpectraSmart Spectrum 2.9.0.0
--------- Device Information -----------
Spectrum Name :  反射率_0
Saving Time :  2024/04/27 00:05:42
Spectro-Module Model Name : SE2030-DUVN
Spectro-Module Serial Number : OS361AC55029948
Wavelength Start : 200
Wavelength End : 1025
Wavelength Unit : Wavelength(nm)
Spectrum Unit : Reflectance(%)
-----------Spectrum Setting ------------
Integration Time : 20ms
Average : 10
Boxcar : 0
Background removal :  enabled
linearity correction :  enabled
SC :  disabled
Intensity correction :  disabled
DWT denoise :  enabled
savitzky-golay :  disabled
FFT :  disabled
Running average :  disabled
Kalman :  disabled
High pass :  disabled
---------------BEGIN--------------------
Wavelength(nm)             Reflectance(%)
200.29               0
200.75        32.91836
201.21        38.18189
201.67        42.76311
202.13        44.41924
202.58        43.02468
203.04        39.27568
203.50        34.09897
203.96        30.91483
204.42        32.21734
204.88        37.43205
205.34        44.39256
205.80        48.70683
206.26        48.74076
206.72        45.87572
207.18        42.01953
207.64         38.4472
208.10        35.03102
208.55        31.15127
209.01        25.52951
209.47        19.37661
209.93        15.89327
210.39        15.38932
210.85        16.76064
211.31        19.49881
211.77        24.56508
212.23          35.793
212.69        63.99459
213.14        113.9407
213.60        116.4035
214.06        84.03303
214.52         61.3243
214.98        51.88012
215.44        48.93258
215.90        48.07206
216.36        48.29739
216.81        48.51831
217.27        48.60917
217.73        49.98454
218.19        51.68539
218.65        49.71592
219.11        44.59043
219.57        39.14226
220.02        36.61918
220.48        39.12554
220.94        46.61696
221.40        60.46734
221.86         79.7654
222.32        90.52564
222.77        82.10419
223.23        64.39558
223.69        48.44255
224.15        40.22727
224.61        37.98259
225.06        38.42831
225.52        39.74806
225.98        40.07806
226.44        39.20611
226.90        37.92617
227.36        36.52835
227.81        35.43414
228.27        34.92505
228.73        34.60075
229.19        34.62859
229.65        35.28728
230.10        36.51099
230.56        38.29606
231.02        39.95673
231.48        40.36692
231.93        39.39709
232.39        37.68796
232.85        36.17619
233.31        36.16312
233.77        37.71222
234.22        40.36114
234.68         43.2336
235.14        45.03975
235.60        45.41556
236.05        44.79588
236.51        43.59112
236.97        42.70586
237.43        42.62701
237.88        43.13938
238.34        44.30971
238.80        46.53567
239.26        50.05132
239.71        55.55458
240.17        62.57663
240.63        69.21632
241.08        73.98545
241.54        75.96424
242.00         76.5951
242.46         79.9633
242.91        89.20982
243.37        105.6314
243.83        130.4094
244.28        154.0667
244.74        159.9934
245.20        146.3601
245.66        125.8381
246.11        110.6707
246.57        102.1986
247.03         97.2365
247.48        92.22955
247.94        83.33401
248.40        73.11834
248.85        64.58174
249.31        59.53088
249.77        58.29934
250.22        60.16609
250.68        64.78941
251.14        71.50294
251.59        76.62388
252.05        77.75314
252.51         76.6021
252.96        73.91064
253.42         71.1289
253.88        68.72412
254.33        65.99564
254.79        65.26482
255.25        68.31478
255.70        74.52152
256.16        83.06762
256.62        90.08567
257.07        89.79134
257.53        84.10557
257.99         76.8303
258.44        70.93528
258.90        69.11346
259.35        70.05092
259.81        72.58743
260.27         75.1129
260.72        75.73682
261.18        74.62529
261.63        72.36526
262.09        70.12496
262.55        68.48174
263.00        67.36781
263.46        66.67557
263.91        65.85159
264.37        64.62597
264.83        62.96614
265.28        61.04183
265.74        59.38841
266.19        58.29485
266.65        57.83286
267.11        57.71796
267.56        57.62523
268.02        57.06569
268.47        55.92792
268.93        54.44748
269.38        52.77557
269.84        51.20794
270.30         49.8344
270.75        48.55134
271.21        47.47945
271.66        46.72894
272.12        46.28156
272.57         46.0774
273.03        45.84812
273.48        45.13995
273.94        43.95002
274.39        42.40841
274.85        40.90379
275.31        39.82652
275.76        39.21676
276.22        38.96075
276.67        38.82248
277.13        38.57448
277.58        38.09042
278.04        37.48136
278.49        36.76781
278.95        36.10427
279.40        35.47616
279.86        34.92044
280.31        34.33004
280.77        33.68193
281.22        32.94265
281.68        32.20747
282.13        31.55783
282.59        31.19195
283.04        31.08625
283.50        31.20246
283.95        31.36745
284.41         31.3237
284.86        31.01997
285.32        30.57357
285.77         30.1443
286.22        30.02753
286.68        30.26259
287.13        30.69943
287.59        31.19015
288.04        31.46063
288.50        31.46792
288.95        31.27336
289.41        30.99389
289.86        30.72284
290.32        30.54728
290.77        30.43382
291.22        30.40777
291.68        30.48814
292.13        30.68193
292.59        31.03654
293.04        31.57664
293.50        32.34543
293.95        33.33129
294.40        34.50977
294.86        35.83749
295.31        37.24116
295.77        38.68992
296.22         40.1585
296.68        41.64607
297.13        43.14355
297.58        44.65943
298.04        46.19888
298.49        47.74149
298.95        49.28193
299.40        50.80864
299.85        52.32946
300.31          53.894
300.76        55.54883
301.21        57.30594
301.67        59.16506
302.12        61.01546
302.58         62.7813
303.03        64.39711
303.48        65.91511
303.94        67.43786
304.39        69.05009
304.84        70.79407
305.30        72.64025
305.75        74.45807
306.20        76.14326
306.66        77.68475
307.11        79.08718
307.57        80.42371
308.02        81.69404
308.47        82.93647
308.93        84.14127
309.38        85.31051
309.83        86.56709
310.29        87.92161
310.74        89.33579
311.19        90.66762
311.65         91.6555
312.10        92.23392
312.55        92.48645
313.00        92.63356
313.46        93.02055
313.91        93.70625
314.36        94.62173
314.82        95.58725
315.27         96.3216
315.72        96.72974
316.18        96.92709
316.63        97.02744
317.08         97.2569
317.53        97.67389
317.99        98.18432
318.44        98.71493
318.89        99.12368
319.35        99.36295
319.80        99.49303
320.25        99.55167
320.70        99.59406
321.16        99.65177
321.61        99.75448
322.06        99.90516
322.51        100.1203
322.97        100.3845
323.42        100.6849
323.87        101.0623
324.32        101.6041
324.78        102.2651
325.23        103.0805
325.68        103.7804
326.13        103.9405
326.59        103.4888
327.04         102.589
327.49        101.6347
327.94        101.2755
328.39        101.6691
328.85        102.6143
329.30        103.8643
329.75        104.7095
330.20         104.917
330.66        104.6527
331.11        104.2529
331.56        104.1927
332.01        104.6152
332.46         105.338
332.92        106.1009
333.37        106.6352
333.82        106.7832
334.27        106.7026
334.72        106.5234
335.17        106.4332
335.63        106.5085
336.08        106.7414
336.53        107.1587
336.98        107.8535
337.43        108.8045
337.88        109.9531
338.34        111.1147
338.79        112.0907
339.24        112.7352
339.69        113.0901
340.14         113.168
340.59        113.0233
341.05        112.7584
341.50        112.3989
341.95        112.1086
342.40        112.1253
342.85        112.5055
343.30         113.184
343.75        114.0653
344.20        114.9675
344.66        115.7934
345.11        116.5533
345.56        117.1582
346.01        117.4901
346.46        117.5606
346.91        117.4233
347.36        117.2164
347.81        117.1788
348.26        117.3614
348.72         117.674
349.17        118.0707
349.62        118.5058
350.07        118.9249
350.52        119.3628
350.97         119.611
351.42        119.3376
351.87        118.5327
352.32        117.3208
352.77        116.1228
353.22        115.5583
353.67        115.7372
354.13        116.4773
354.58        117.3765
355.03         117.712
355.48        117.2879
355.93        116.3145
356.38        115.1883
356.83        114.5102
357.28        114.4002
357.73        114.6376
358.18        114.8807
358.63        114.5957
359.08        113.6613
359.53        112.2936
359.98        110.7831
360.43        109.5335
360.88        108.6467
361.33        107.9896
361.78        107.4183
362.23        106.7156
362.68          105.83
363.13        104.8646
363.58        103.8932
364.03        103.0057
364.48        102.2252
364.93        101.4972
365.38        100.8189
365.83        100.2056
366.28        99.64932
366.73        99.15134
367.18        98.64699
367.63        98.02729
368.08        97.27308
368.53        96.41394
368.98        95.53546
369.43        94.77561
369.88        94.16843
370.33        93.67677
370.78        93.22252
371.23        92.68139
371.68        92.01725
372.13        91.25897
372.58         90.4845
373.03        89.81281
373.48        89.26311
373.93        88.79472
374.38        88.29848
374.83        87.61115
375.28        86.71151
375.72        85.64861
376.17        84.61616
376.62        83.79441
377.07        83.23656
377.52        82.90673
377.97        82.68177
378.42        82.37228
378.87        81.93027
379.32        81.38287
379.77        80.89436
380.22        80.70634
380.67        80.83067
381.11        81.20532
381.56        81.48085
382.01        81.16994
382.46        80.21239
382.91        78.84027
383.36        77.47174
383.81        76.67287
384.26          76.537
384.71        76.86823
385.15         77.4117
385.60        77.72062
386.05        77.64457
386.50        77.31185
386.95        76.80435
387.40        76.25386
387.85        75.73083
388.29         75.1529
388.74        74.64805
389.19        74.20696
389.64        73.83073
390.09        73.52553
390.54        73.27814
390.98        73.04008
391.43         72.8283
391.88        72.62601
392.33        72.43674
392.78        72.22755
393.23        71.98738
393.67        71.80392
394.12        71.69021
394.57        71.27082
395.02         70.6611
395.47         70.4441
395.91        70.59736
396.36        70.52995
396.81        70.23869
397.26        70.07512
397.71        69.99445
398.15        69.78825
398.60        69.53519
399.05        69.11125
399.50        68.64064
399.95        68.59751
400.39         68.8727
400.84        68.68287
401.29        68.05944
401.74        67.68739
402.18        67.61276
402.63        67.41891
403.08         67.1452
403.53        67.01627
403.97        67.02437
404.42        67.09582
404.87         67.1607
405.32        67.07566
405.76        66.81129
406.21        66.54928
406.66        66.30686
407.11        65.94937
407.55        65.63715
408.00        65.65683
408.45        65.98027
408.90        66.45901
409.34        66.80889
409.79        66.41032
410.24        65.49131
410.68        65.02502
411.13        65.09367
411.58         65.1452
412.03        65.06318
412.47        64.92769
412.92        64.69643
413.37        64.38986
413.81        64.10081
414.26        64.02145
414.71        64.15389
415.15         64.4657
415.60        64.82753
416.05        65.08195
416.49        65.17226
416.94        65.13165
417.39        65.02454
417.83        64.93912
418.28        64.91286
418.73        64.92094
419.17        64.94682
419.62        64.96868
420.07        64.96547
420.51        64.92407
420.96        64.89264
421.41        64.84457
421.85        64.75233
422.30         64.8082
422.74        64.87271
423.19        64.56149
423.64        63.97136
424.08        63.78791
424.53        64.02486
424.98        64.14272
425.42        64.12197
425.87        64.36713
426.31        64.74991
426.76        64.64825
427.21        64.13049
427.65        63.79695
428.10         63.7257
428.54        63.70531
428.99        63.78991
429.44        63.88048
429.88        64.03269
430.33        64.67615
430.77        65.49423
431.22         65.8078
431.66        65.54665
432.11        64.99224
432.56        64.40607
433.00        64.18995
433.45        64.52371
433.89        65.22985
434.34        65.65262
434.78        66.53462
435.23        65.56871
435.67        63.77813
436.12        64.21182
436.57        64.29743
437.01        64.83121
437.46        65.05058
437.90        64.97539
438.35        64.29634
438.79        64.57397
439.24         64.5985
439.68        64.78178
440.13        65.17873
440.57         65.6811
441.02        65.77924
441.46        65.51984
441.91        65.70042
442.35        66.15113
442.80        66.19202
443.24        65.86523
443.69        65.88935
444.13        66.22943
444.58        66.40832
445.02        66.39383
445.47        66.41917
445.91        66.50739
446.36        66.62286
446.80        66.75046
447.24        66.97094
447.69        67.09928
448.13        67.23405
448.58        67.32701
449.02        67.37016
449.47        67.37553
449.91        67.33183
450.36        67.26998
450.80         67.1786
451.25        67.10046
451.69        67.04868
452.13        67.03965
452.58         67.0505
453.02        67.07607
453.47        67.11386
453.91         67.1479
454.36        67.20045
454.80        67.22809
455.24        67.03601
455.69        66.58932
456.13        66.18702
456.58        66.08416
457.02        65.23118
457.46        65.33971
457.91        66.08136
458.35          65.874
458.79        65.84019
459.24        65.44124
459.68        64.78275
460.13        64.12486
460.57        63.84471
461.01        64.06003
461.46        64.48859
461.90        64.92171
462.34        65.66479
462.79          65.256
463.23         65.4808
463.68        65.76472
464.12        65.57336
464.56        64.90866
465.01        64.00893
465.45        63.14624
465.89        63.06051
466.34        63.57695
466.78        63.84544
467.22        63.76463
467.67        63.42849
468.11        63.11039
468.55        63.24017
468.99        63.33393
469.44        63.29699
469.88        62.98763
470.32        62.77494
470.77        62.69232
471.21        62.61412
471.65        62.53505
472.10        62.49134
472.54        62.48397
472.98        62.46382
473.42        62.40825
473.87        62.49723
474.31        62.59811
474.75        62.20165
475.20        61.52389
475.64        61.36644
476.08        61.88053
476.52        61.94773
476.97        61.55544
477.41        61.42756
477.85        61.71242
478.29        61.27823
478.74         61.5205
479.18         62.1493
479.62        61.74781
480.06        61.78906
480.50        61.72063
480.95        61.62307
481.39        61.51414
481.83        61.21978
482.27        61.15132
482.72        61.46468
483.16        61.32253
483.60        61.40826
484.04        61.41935
484.48        61.52117
484.93        61.61385
485.37        61.32941
485.81        61.08036
486.25        60.85744
486.69        61.69793
487.14        62.43858
487.58        61.07389
488.02        61.60104
488.46        60.55604
488.90        60.77965
489.34        61.66955
489.79        62.23856
490.23        61.55838
490.67        60.97169
491.11        60.46436
491.55         60.2976
491.99         60.4275
492.43        60.34564
492.88        60.05305
493.32        59.97834
493.76        60.13882
494.20        60.26728
494.64        60.32892
495.08        60.49056
495.52        60.67645
495.96        60.54343
496.41        60.17262
496.85        60.11945
497.29        60.28487
497.73        60.39689
498.17        59.74417
498.61        59.81231
499.05        60.29217
499.49        60.47765
499.93         60.1445
500.37        60.11833
500.82         60.3213
501.26        60.27982
501.70        60.03832
502.14        60.01452
502.58        60.21711
503.02        60.35258
503.46        60.42735
503.90        60.57428
504.34        60.73125
504.78        60.70613
505.22        60.47131
505.66        60.12077
506.10        59.78469
506.54        59.52475
506.98        59.35629
507.42        59.70951
507.86         59.8731
508.30        59.77987
508.74        60.00124
509.18        59.94049
509.62        59.86484
510.06        59.80958
510.50        59.80279
510.94        59.80379
511.38        59.80032
511.82        59.80093
512.26        59.80124
512.70        59.80832
513.14        59.81445
513.58        59.80122
514.02        59.76852
514.46        59.72281
514.90        59.68195
515.34        59.67632
515.78        59.70932
516.22        59.76495
516.66        59.82662
517.10         59.8679
517.54        59.87906
517.98        59.87082
518.42        59.83546
518.86        59.76189
519.30        59.65601
519.74        59.52337
520.18        59.40367
520.62        59.35692
521.06        59.39642
521.50        59.51255
521.93        59.65959
522.37        59.73986
522.81        59.73861
523.25        59.67596
523.69        59.61018
524.13        59.63645
524.57        59.76513
525.01        59.95079
525.45        60.12256
525.89        60.16884
526.32        60.05815
526.76         59.8537
527.20        59.59679
527.64        59.35525
528.08        59.16302
528.52        59.00552
528.96        58.91168
529.40        58.92457
529.83        59.03802
530.27        59.24229
530.71        59.46478
531.15        59.59265
531.59        59.59669
532.03        59.50033
532.46        59.34901
532.90        59.26193
533.34        59.25858
533.78        59.27549
534.22         59.2803
534.66        59.29756
535.09        59.27299
535.53        59.08776
535.97        58.80317
536.41        58.66443
536.85        58.69925
537.28        58.78873
537.72        58.89581
538.16        59.00659
538.60        59.09788
539.04        59.16777
539.47        59.21275
539.91        59.26799
540.35        59.32215
540.79        59.36443
541.22        59.37236
541.66        59.33237
542.10        59.24046
542.54         59.1144
542.97        58.97116
543.41        58.86361
543.85        58.79564
544.29         58.7591
544.72        58.74224
545.16         58.7516
545.60        58.77269
546.04        58.84235
546.47        58.93867
546.91        58.97308
547.35        58.97078
547.79        59.01929
548.22        59.11152
548.66        59.25266
549.10        59.42394
549.53        59.32863
549.97        59.03212
550.41        58.78686
550.84        58.68129
551.28        58.69251
551.72        58.76973
552.15        58.87069
552.59        59.01295
553.03        58.77409
553.46        59.06977
553.90        59.05107
554.34        58.97943
554.77        58.94163
555.21        58.84663
555.65        58.84731
556.08        58.96249
556.52        59.02847
556.96        59.03914
557.39        59.13721
557.83        59.27479
558.27        59.11898
558.70        58.72848
559.14        58.57012
559.57        58.63917
560.01        58.58855
560.45        58.46508
560.88        58.61699
561.32          58.977
561.75        59.17683
562.19        59.16916
562.63        58.92982
563.06        58.57957
563.50        58.51491
563.93        58.67254
564.37        58.75959
564.80        58.76139
565.24        58.67291
565.68        58.38225
566.11        58.98264
566.55        58.35963
566.98        58.16345
567.42         57.9321
567.85        58.05603
568.29        58.48795
568.72        58.83797
569.16        59.11408
569.60        59.20681
570.03        59.29587
570.47        59.36094
570.90        59.57039
571.34         58.8221
571.77        59.38805
572.21        59.50637
572.64        59.70138
573.08        59.61359
573.51        59.24947
573.95         59.1951
574.38        59.52952
574.82        59.70491
