SpectraSmart Spectrum 2.9.0.0
--------- Device Information -----------
Spectrum Name :  反射率_0
Saving Time :  2024/04/27 00:05:58
Spectro-Module Model Name : SE2030-DUVN
Spectro-Module Serial Number : OS361AC55029948
Wavelength Start : 200
Wavelength End : 1025
Wavelength Unit : Wavelength(nm)
Spectrum Unit : Reflectance(%)
-----------Spectrum Setting ------------
Integration Time : 20ms
Average : 10
Boxcar : 0
Background removal :  enabled
linearity correction :  enabled
SC :  disabled
Intensity correction :  disabled
DWT denoise :  enabled
savitzky-golay :  disabled
FFT :  disabled
Running average :  disabled
Kalman :  disabled
High pass :  disabled
---------------BEGIN--------------------
Wavelength(nm)             Reflectance(%)
200.29               0
200.75        44.43538
201.21        39.06995
201.67        34.49221
202.13         32.0693
202.58        31.61112
203.04        32.96934
203.50        35.98842
203.96        39.39729
204.42        42.06882
204.88        44.04673
205.34         45.0831
205.80        45.32078
206.26        44.93314
206.72        43.65485
207.18        42.20954
207.64         41.2552
208.10        40.80333
208.55        41.17087
209.01        41.59312
209.47        40.72239
209.93        38.72274
210.39        36.79493
210.85        35.99529
211.31        37.01477
211.77        40.42653
212.23        48.84715
212.69        70.02184
213.14        105.1069
213.60        101.3731
214.06        75.22069
214.52        58.73744
214.98        52.94904
215.44        52.42092
215.90        53.72102
216.36        55.94157
216.81        57.90676
217.27        59.52614
217.73        62.56386
218.19        65.46271
218.65        62.33927
219.11        54.16747
219.57        45.58377
220.02        41.46227
220.48        44.61089
220.94        54.88812
221.40        74.20271
221.86        101.4075
222.32        117.0838
222.77        106.1407
223.23        82.00566
223.69        59.91161
224.15        48.20325
224.61        44.55849
225.06        44.51451
225.52        45.66616
225.98        45.54356
226.44        43.83548
226.90        41.59356
227.36        39.18746
227.81        37.19939
228.27        36.05832
228.73        35.29594
229.19        35.12894
229.65        35.92546
230.10        37.52755
230.56        39.79998
231.02        41.89709
231.48         42.4186
231.93        41.19979
232.39        39.09637
232.85        37.02963
233.31        36.23518
233.77        36.87936
234.22        38.57205
234.68        40.82351
235.14        43.01467
235.60        44.89737
236.05        46.67527
236.51        48.33178
236.97        49.74807
237.43        50.83585
237.88        51.54266
238.34        51.86643
238.80        52.20154
239.26        52.80166
239.71        54.00863
240.17        55.92604
240.63        59.03592
241.08        63.62632
241.54        69.31047
242.00        76.34193
242.46        85.75477
242.91        99.55318
243.37        119.4284
243.83         146.525
244.28        171.7708
244.74        178.2894
245.20        163.3701
245.66        140.6293
246.11        123.5761
246.57        113.6374
247.03        107.2733
247.48        101.9308
247.94        94.91232
248.40        87.73729
248.85        82.36589
249.31        79.04079
249.77        76.54555
250.22        74.12061
250.68        71.12802
251.14        68.27821
251.59        68.32507
252.05        72.43827
252.51        79.21734
252.96        84.69984
253.42        86.03322
253.88        83.84406
254.33        79.40995
254.79        76.39896
255.25        77.63315
255.70        82.56243
256.16        89.75885
256.62         95.6055
257.07        94.88952
257.53        89.33862
257.99        82.41821
258.44        76.47202
258.90        73.66628
259.35        72.87795
259.81        73.39181
260.27         74.0647
260.72         73.6968
261.18        72.46709
261.63        70.52174
262.09        68.80731
262.55        67.71924
263.00        67.08297
263.46        66.83683
263.91        66.22525
264.37        64.69399
264.83        62.28744
265.28        59.37035
265.74         56.7906
266.19        55.24324
266.65        54.84609
267.11        55.17387
267.56        55.72905
268.02        55.73841
268.47         54.9702
268.93         53.7028
269.38        52.13123
269.84         50.6224
270.30        49.28683
270.75        48.00016
271.21        46.81016
271.66        45.73119
272.12        44.76508
272.57        43.92033
273.03        43.13634
273.48        42.27515
273.94        41.37002
274.39        40.41761
274.85        39.55662
275.31        38.83733
275.76        38.23569
276.22        37.75305
276.67        37.29156
277.13        36.81908
277.58        36.26709
278.04        35.68221
278.49        35.03877
278.95         34.4261
279.40        33.81206
279.86        33.25616
280.31        32.68387
280.77        32.10228
281.22        31.47922
281.68        30.89083
282.13        30.36781
282.59        30.03915
283.04        29.87947
283.50        29.87174
283.95        29.91899
284.41        29.88416
284.86         29.7324
285.32        29.53092
285.77        29.34537
286.22        29.33693
286.68        29.52556
287.13        29.81311
287.59        30.12565
288.04         30.3032
288.50        30.33075
288.95        30.22987
289.41        30.07462
289.86        29.89923
290.32        29.77154
290.77        29.67901
291.22        29.65767
291.68        29.74104
292.13        29.94006
292.59        30.29069
293.04        30.81541
293.50        31.55737
293.95        32.50663
294.40        33.64706
294.86        34.93578
295.31        36.29572
295.77        37.70396
296.22        39.14697
296.68        40.63958
297.13        42.19699
297.58        43.82829
298.04        45.52005
298.49        47.24599
298.95        48.99029
299.40        50.72918
299.85        52.47225
300.31        54.22749
300.76        55.98213
301.21         57.7467
301.67         59.5405
302.12        61.33741
302.58        63.18931
303.03        65.05459
303.48        66.95514
303.94        68.89687
304.39        70.81444
304.84           72.73
305.30        74.66586
305.75        76.59908
306.20        78.59207
306.66        80.65273
307.11        82.70541
307.57        84.70886
308.02        86.48896
308.47        88.04436
308.93        89.42795
309.38        90.70367
309.83        92.09595
310.29         93.6527
310.74         95.3046
311.19         96.9062
311.65        98.18807
312.10        99.06794
312.55        99.62952
313.00        100.0692
313.46        100.6955
313.91        101.5591
314.36        102.5998
314.82        103.6505
315.27        104.4568
315.72        104.9324
316.18        105.1896
316.63        105.3446
317.08        105.6294
317.53        106.1073
317.99         106.693
318.44        107.3083
318.89        107.7967
319.35        108.1074
319.80        108.2993
320.25        108.4308
320.70        108.5938
321.16        108.8186
321.61        109.1194
322.06        109.4503
322.51         109.749
322.97         109.984
323.42        110.1738
323.87        110.4101
324.32        110.8647
324.78        111.5181
325.23        112.3913
325.68        113.1966
326.13        113.4755
326.59        113.1375
327.04         112.357
327.49        111.5128
327.94        111.2379
328.39        111.6835
328.85        112.6306
329.30         113.859
329.75        114.6904
330.20        114.9018
330.66        114.6619
331.11        114.2657
331.56        114.1105
332.01        114.3321
332.46        114.7695
332.92        115.2638
333.37          115.73
333.82          116.05
334.27        116.3373
334.72        116.5766
335.17        116.7107
335.63         116.752
336.08        116.7605
336.53        116.9107
336.98        117.5504
337.43        118.7225
337.88        120.2843
338.34        121.9071
338.79        123.1596
339.24        123.8199
339.69         124.012
340.14        123.8412
340.59        123.5131
341.05        123.1825
341.50        122.8133
341.95        122.5566
342.40         122.635
342.85        123.0864
343.30        123.8631
343.75        124.8084
344.20         125.632
344.66        126.2281
345.11        126.6422
345.56        126.8962
346.01         127.054
346.46        127.1626
346.91         127.214
347.36        127.2507
347.81         127.355
348.26        127.5403
348.72        127.7817
349.17          128.07
349.62        128.4186
350.07        128.8024
350.52        129.2245
350.97        129.5188
351.42        129.4296
351.87        128.9293
352.32        128.0945
352.77        127.2277
353.22        126.7712
353.67        126.8034
354.13        127.2047
354.58         127.657
355.03        127.5839
355.48        126.8595
355.93        125.6673
356.38        124.4223
356.83        123.7425
357.28        123.7338
357.73        124.1725
358.18        124.6433
358.63        124.4844
359.08        123.5361
359.53        122.0344
359.98        120.3373
360.43        118.9587
360.88        118.0328
361.33        117.4082
361.78        116.8811
362.23          116.14
362.68        115.1167
363.13        113.9388
363.58        112.7811
364.03        111.8874
364.48        111.2953
364.93        110.8917
365.38        110.5089
365.83        109.8995
366.28        109.0027
366.73        107.9116
367.18        106.7462
367.63        105.6833
368.08        104.7837
368.53        104.0052
368.98        103.3059
369.43        102.6156
369.88        101.9107
370.33        101.2154
370.78        100.5596
371.23         99.9926
371.68        99.51482
372.13        99.08489
372.58        98.64649
373.03        98.11708
373.48        97.46889
373.93        96.72581
374.38        95.90466
374.83        95.04498
375.28        94.17368
375.72        93.26606
376.17        92.41947
376.62        91.66077
377.07        91.00939
377.52        90.49329
377.97        90.04224
378.42        89.55032
378.87        89.00069
379.32        88.38368
379.77        87.87026
380.22         87.7149
380.67        87.92093
381.11        88.43515
381.56        88.83797
382.01        88.52398
382.46        87.41666
382.91        85.78759
383.36        84.16524
383.81        83.27648
384.26         83.2346
384.71        83.78455
385.15        84.57151
385.60        84.97646
386.05         84.8039
386.50        84.24715
386.95        83.45163
387.40        82.64821
387.85        81.94566
388.29        81.22565
388.74        80.63243
389.19        80.16314
389.64        79.80923
390.09        79.58034
390.54        79.41238
390.98        79.16679
391.43        78.85187
391.88        78.47881
392.33        78.12399
392.78        77.86212
393.23        77.69415
393.67        77.66172
394.12         77.7188
394.57        77.39201
395.02        76.77502
395.47        76.48544
395.91        76.53785
396.36        76.39565
396.81        76.08606
397.26        75.95264
397.71        75.92899
398.15        75.78954
398.60        75.61108
399.05        75.21322
399.50        74.75746
399.95        74.88622
400.39        75.44831
400.84        75.36722
401.29         74.6316
401.74        74.16825
402.18        73.99178
402.63        73.39227
403.08        72.55836
403.53        72.17059
403.97         72.2789
404.42        72.63063
404.87        73.02303
405.32        73.15581
405.76        72.93581
406.21        72.55248
406.66         72.1179
407.11        71.71606
407.55        71.50515
408.00        71.57565
408.45        71.84637
408.90        72.18434
409.34        72.33964
409.79        71.79455
410.24        70.83072
410.68        70.39708
411.13        70.58266
411.58        70.88357
412.03        71.09692
412.47        71.10024
412.92        70.80433
413.37        70.30099
413.81        69.77491
414.26        69.55551
414.71        69.67639
415.15        70.06328
415.60        70.54608
416.05        70.90282
416.49        71.04669
416.94        71.03104
417.39        70.92281
417.83        70.80885
418.28        70.73337
418.73        70.67045
419.17        70.61655
419.62        70.57726
420.07        70.53847
420.51        70.47814
420.96         70.4498
421.41        70.42166
421.85        70.35848
422.30        70.47357
422.74        70.59262
423.19        70.25828
423.64        69.57501
424.08        69.30875
424.53        69.51006
424.98        69.63685
425.42        69.68161
425.87        70.08788
426.31        70.67004
426.76        70.65058
427.21        70.09619
427.65         69.7323
428.10        69.66939
428.54        69.66458
428.99        69.77969
429.44        69.93889
429.88        70.17478
430.33        70.83627
430.77        71.59979
431.22        71.90565
431.66        71.66666
432.11        70.97521
432.56        70.15433
433.00        69.94566
433.45        70.53522
433.89        71.38842
434.34        71.93163
434.78        72.98895
435.23        71.31705
435.67        69.85606
436.12        70.04076
436.57        70.41533
437.01        71.28822
437.46        71.58163
437.90         71.1336
438.35        70.75353
438.79         70.5655
439.24        70.53682
439.68         70.6749
440.13          71.008
440.57        71.49117
441.02        71.82185
441.46        71.93143
441.91        72.38349
442.35         72.8962
442.80        72.53904
443.24        71.56567
443.69        71.53165
444.13        72.35004
444.58         72.7273
445.02        72.58022
445.47        72.56493
445.91        72.74245
446.36        72.95173
446.80        73.17057
447.24        73.47159
447.69        73.76343
448.13         73.7361
448.58         73.4771
449.02        73.40343
449.47        73.54249
449.91        73.55706
450.36        73.47401
450.80        73.48006
451.25        73.59084
451.69        73.66455
452.13        73.70221
452.58        73.73279
453.02         73.7414
453.47        73.71232
453.91        73.63657
454.36        73.52443
454.80        73.38221
455.24        73.16272
455.69        72.87881
456.13        72.66264
456.58        72.58934
457.02        72.12505
457.46        71.85659
457.91         72.0623
458.35        72.59543
458.79        72.54047
459.24        71.90246
459.68        71.06178
460.13        70.34373
460.57        70.03259
461.01        70.25764
461.46        70.56397
461.90        71.26061
462.34        71.77299
462.79        71.43059
463.23        71.44053
463.68        71.52773
464.12        71.44901
464.56        71.11507
465.01         70.4087
465.45        69.52342
465.89         69.2452
466.34        69.49996
466.78         69.6757
467.22        69.71956
467.67        69.45429
468.11        69.52104
468.55        69.54607
468.99        69.64588
469.44        69.52859
469.88         69.2012
470.32        68.84219
470.77        68.54393
471.21        68.38398
471.65        68.38153
472.10        68.51899
472.54        68.70631
472.98        68.78779
473.42        68.71922
473.87        68.62099
474.31        68.46242
474.75        68.12329
475.20        67.76099
475.64        67.54168
476.08        68.02446
476.52        67.95636
476.97        67.40875
477.41        67.39011
477.85        67.88872
478.29        66.46587
478.74        68.04458
479.18        68.13186
479.62        67.86976
480.06        67.79145
480.50        67.81244
480.95        67.73595
481.39        67.56242
481.83        67.26566
482.27        67.22867
482.72        67.53355
483.16        67.51763
483.60        67.50131
484.04        67.68805
484.48        67.72015
484.93        67.60095
485.37        67.64429
485.81        67.20872
486.25        66.54826
486.69        68.33652
487.14        68.45186
487.58        67.38304
488.02        67.74634
488.46        66.44555
488.90        66.47128
489.34        68.07527
489.79        68.68608
490.23        68.24142
490.67        67.47778
491.11        66.71854
491.55        66.59827
491.99        67.02696
492.43        67.00713
492.88        66.51771
493.32        66.32729
493.76        66.47662
494.20        66.59354
494.64        66.64928
495.08        66.77496
495.52        66.92232
495.96        66.92625
496.41        66.79678
496.85        66.76763
497.29        66.73086
497.73        66.68334
498.17        65.88017
498.61        65.84349
499.05        66.26791
499.49        66.51681
499.93        66.30577
500.37         66.3516
500.82        66.56619
501.26         66.5793
501.70        66.43108
502.14        66.46867
502.58        66.68371
503.02        66.80423
503.46        66.81565
503.90        66.87232
504.34        66.94134
504.78        66.88821
505.22        66.69513
505.66        66.44447
506.10         66.2354
506.54        66.02415
506.98        65.79794
507.42        66.11003
507.86        66.29749
508.30        65.87196
508.74        66.23091
509.18        66.11679
509.62        66.02892
510.06        65.96835
510.50        65.96362
510.94        65.97153
511.38        65.97963
511.82        66.01595
512.26         66.0736
512.70        66.15093
513.14        66.22177
513.58        66.23994
514.02        66.19994
514.46         66.1178
514.90        66.03086
515.34        66.00157
515.78        66.04243
516.22        66.12757
516.66        66.23027
517.10          66.307
517.54        66.34123
517.98        66.34934
518.42        66.32196
518.86        66.24505
519.30        66.12672
519.74        65.97111
520.18        65.82042
520.62        65.76465
521.06        65.82446
521.50        65.93797
521.93        66.04152
522.37        66.25245
522.81        66.16175
523.25        66.10456
523.69         66.0247
524.13        66.02815
524.57        66.12704
525.01        66.28554
525.45          66.437
525.89        66.46641
526.32        66.34407
526.76        66.13136
527.20        65.88603
527.64        65.70187
528.08        65.61028
528.52        65.58485
528.96        65.61005
529.40        65.66105
529.83         65.7203
530.27        65.80016
530.71        65.87989
531.15        65.93231
531.59        65.94985
532.03        65.93004
532.46        65.87383
532.90        65.83369
533.34        65.80984
533.78        65.75807
534.22        65.67529
534.66        65.63661
535.09        65.59567
535.53        65.40516
535.97        65.11012
536.41        64.95086
536.85        64.94831
537.28        64.97703
537.72        65.02301
538.16        65.11122
538.60        65.22536
539.04        65.35825
539.47        65.45934
539.91        65.49525
540.35        65.44734
540.79        65.32788
541.22        65.19192
541.66        65.15164
542.10        65.21877
542.54        65.35957
542.97        65.49517
543.41        65.53183
543.85        65.44077
544.29        65.26928
544.72        65.06513
545.16        64.94068
545.60        64.91399
546.04        64.95734
546.47        65.05601
546.91        65.20346
547.35        65.37991
547.79        65.51608
548.22        65.58747
548.66        65.71178
549.10        65.87099
549.53        65.65931
549.97        65.19945
550.41        64.89195
550.84        64.85269
551.28        65.02776
551.72        65.29489
552.15        65.47911
552.59        65.60898
553.03        65.21659
553.46        65.50033
553.90        65.39674
554.34        65.23598
554.77        65.20505
555.21        65.38047
555.65        64.94434
556.08        65.32336
556.52        65.32069
556.96        65.32962
557.39         65.4331
557.83        65.57686
558.27        65.37708
558.70        64.91582
559.14         64.7615
559.57        64.90466
560.01          64.986
560.45        64.97052
560.88         65.0479
561.32        65.21577
561.75        65.26636
562.19        65.24522
562.63        65.29276
563.06        65.40031
563.50        65.50189
563.93        65.50957
564.37        65.48323
564.80        65.45094
565.24        65.26354
565.68        64.82958
566.11        65.43992
566.55        64.76656
566.98        64.64851
567.42        64.53399
567.85        64.79576
568.29        65.33762
568.72        65.66481
569.16        65.83156
569.60        65.87361
570.03        66.00008
570.47        66.12374
570.90        66.35503
571.34        65.57447
571.77        65.86167
572.21        66.15159
572.64        65.75869
573.08        66.25339
573.51        65.55319
573.95        65.69707
574.38        66.06742
574.82        66.09337
