SpectraSmart Spectrum 2.9.0.0
--------- Device Information -----------
Spectrum Name :  反射率_0
Saving Time :  2024/04/26 23:50:12
Spectro-Module Model Name : SE2030-DUVN
Spectro-Module Serial Number : OS361AC55029948
Wavelength Start : 200
Wavelength End : 1025
Wavelength Unit : Wavelength(nm)
Spectrum Unit : Reflectance(%)
-----------Spectrum Setting ------------
Integration Time : 20ms
Average : 10
Boxcar : 0
Background removal :  enabled
linearity correction :  enabled
SC :  disabled
Intensity correction :  disabled
DWT denoise :  enabled
savitzky-golay :  disabled
FFT :  disabled
Running average :  disabled
Kalman :  disabled
High pass :  disabled
---------------BEGIN--------------------
Wavelength(nm)             Reflectance(%)
200.29               0
200.75        27.15636
201.21        23.44634
201.67        20.65431
202.13        20.00588
202.58        21.44065
203.04        25.22101
203.50        30.90164
203.96         35.7889
204.42        37.73532
204.88        36.61635
205.34        33.79621
205.80        32.79729
206.26        34.27319
206.72        36.35437
207.18        37.76102
207.64        37.35413
208.10        34.90042
208.55        30.87275
209.01        24.14724
209.47         16.5736
209.93        12.36922
210.39        11.52742
210.85         12.6966
211.31        15.18398
211.77        19.75185
212.23        29.88623
212.69        55.64619
213.14          102.56
213.60         106.629
214.06        77.24004
214.52         55.3492
214.98        44.42576
215.44        38.42647
215.90        33.65145
216.36        29.52469
216.81         25.5968
217.27        22.05315
217.73        19.38799
218.19        18.06013
218.65        19.21284
219.11        22.40543
219.57        25.29602
220.02        28.48789
220.48        34.23273
220.94        43.66093
221.40        58.75024
221.86        78.06693
222.32        86.24844
222.77        73.52843
223.23        51.95734
223.69        34.05171
224.15        26.18262
224.61        25.78848
225.06        28.81401
225.52        32.86186
225.98        35.67181
226.44         36.9952
226.90        37.88841
227.36        38.26903
227.81        37.81207
228.27        36.76815
228.73         35.0448
229.19        33.65377
229.65        33.89001
230.10        35.68857
230.56        38.63637
231.02        41.37994
231.48        41.71597
231.93        39.40989
232.39        35.72055
232.85        32.09237
233.31        30.36667
233.77        30.73969
234.22        32.56388
234.68        34.99025
235.14        36.82602
235.60        37.67697
236.05        37.95028
236.51        37.89338
236.97        37.94631
237.43        38.35961
237.88        38.96881
238.34        39.84448
238.80        41.45176
239.26        44.08724
239.71        48.31507
240.17        54.03278
240.63         60.4029
241.08        66.60052
241.54        71.77888
242.00        76.69604
242.46        84.11004
242.91        96.73012
243.37        116.0232
243.83        142.4619
244.28        164.5873
244.74         164.716
245.20        142.9896
245.66         115.799
246.11        97.17062
246.57        87.75806
247.03        83.46024
247.48        81.06844
247.94        76.46764
248.40        70.41663
248.85        65.20715
249.31        61.68823
249.77        59.33986
250.22        57.50123
250.68        55.65069
251.14        53.89212
251.59        53.26561
252.05        54.70666
252.51        57.98451
252.96        61.29894
253.42        63.45367
253.88        64.42499
254.33        64.14994
254.79        64.73795
255.25         67.8007
255.70        72.95856
256.16        79.54651
256.62        84.42656
257.07        83.10787
257.53        77.47379
257.99        70.67089
258.44         65.1282
258.90        63.05108
259.35        63.25174
259.81        64.83803
260.27         66.4006
260.72        66.31707
261.18        64.81087
261.63        62.40602
262.09        60.21059
262.55        58.83286
263.00        58.15416
263.46        57.96787
263.91        57.65622
264.37        56.79979
264.83        55.34615
265.28        53.51784
265.74        51.84868
266.19        50.66029
266.65        50.05019
267.11        49.76805
267.56        49.54187
268.02        48.96707
268.47        47.95139
268.93         46.6768
269.38         45.3079
269.84        44.14248
270.30        43.24187
270.75        42.50027
271.21        41.87128
271.66        41.22881
272.12        40.53293
272.57        39.79405
273.03        39.01882
273.48        38.20237
273.94        37.40322
274.39        36.59243
274.85        35.82857
275.31        35.05444
275.76        34.26017
276.22        33.51597
276.67        32.84181
277.13        32.35421
277.58        32.00515
278.04         31.7575
278.49        31.50416
278.95        31.20648
279.40        30.79128
279.86        30.35056
280.31        29.80665
280.77        29.15385
281.22         28.3896
281.68        27.60284
282.13        26.89708
282.59         26.4928
283.04        26.38047
283.50        26.51116
283.95        26.74057
284.41        26.84103
284.86        26.75409
285.32        26.57758
285.77        26.39425
286.22        26.38721
286.68        26.58429
287.13        26.86883
287.59        27.19237
288.04        27.44222
288.50        27.59831
288.95        27.67268
289.41        27.66445
289.86         27.4999
290.32        27.23898
290.77        26.91641
291.22        26.66425
291.68        26.66178
292.13        26.94538
292.59        27.49291
293.04        28.24546
293.50        29.11596
293.95        30.05497
294.40         31.0861
294.86        32.20184
295.31        33.38148
295.77        34.62881
296.22        35.92251
296.68        37.28318
297.13        38.73671
297.58        40.29876
298.04        41.96526
298.49        43.71638
298.95        45.53748
299.40         47.3966
299.85        49.28597
300.31        51.19548
300.76        53.09143
301.21        54.97131
301.67        56.85548
302.12        58.70287
302.58        60.54308
303.03        62.34193
303.48        64.13225
303.94        65.96191
304.39        67.83294
304.84        69.77427
305.30        71.78366
305.75        73.79984
306.20        75.81908
306.66         77.8372
307.11        79.81293
307.57        81.72165
308.02        83.41817
308.47        84.91516
308.93         86.2529
309.38        87.52594
309.83        89.00204
310.29        90.72798
310.74        92.62119
311.19        94.46671
311.65        95.88088
312.10        96.75573
312.55        97.20328
313.00        97.49842
313.46        98.07372
313.91        99.00526
314.36        100.1934
314.82         101.397
315.27        102.2398
315.72        102.6077
316.18        102.6594
316.63        102.5821
317.08        102.7108
317.53        103.1381
317.99        103.7497
318.44        104.4253
318.89        104.9413
319.35        105.2268
319.80        105.3618
320.25        105.4358
320.70        105.5874
321.16        105.8562
321.61        106.2349
322.06        106.6414
322.51        106.9591
322.97        107.1413
323.42        107.2211
323.87        107.3261
324.32        107.6836
324.78        108.2928
325.23        109.1629
325.68        109.9746
326.13        110.2135
326.59        109.7775
327.04        108.8591
327.49        107.8894
327.94        107.5764
328.39        108.0884
328.85        109.1935
329.30        110.6019
329.75        111.5192
330.20        111.6864
330.66        111.2954
331.11         110.735
331.56        110.5579
332.01        110.9351
332.46        111.6673
332.92        112.4699
333.37        113.0382
333.82         113.198
334.27        113.1221
334.72        112.9584
335.17        112.9178
335.63        113.0845
336.08        113.4491
336.53        114.0166
336.98        114.8492
337.43        115.9192
337.88        117.1716
338.34        118.4589
338.79        119.6531
339.24          120.61
339.69        121.3403
340.14        121.7753
340.59         121.843
341.05        121.6179
341.50        121.1632
341.95         120.722
342.40        120.6563
342.85        121.0581
343.30        121.8306
343.75        122.8318
344.20        123.8007
344.66        124.6189
345.11        125.3279
345.56        125.8746
346.01        126.1923
346.46        126.3084
346.91        126.2597
347.36        126.1583
347.81         126.206
348.26        126.4438
348.72        126.7912
349.17        127.2303
349.62        127.7597
350.07        128.3321
350.52        128.9675
350.97         129.407
351.42        129.2419
351.87        128.4427
352.32        127.1494
352.77         125.852
353.22         125.272
353.67         125.543
354.13        126.4681
354.58        127.5577
355.03        127.9357
355.48         127.383
355.93        126.1613
356.38        124.8184
356.83        124.1829
357.28        124.4067
357.73        125.1833
358.18        125.9888
358.63        125.9919
359.08        124.9913
359.53        123.2969
359.98        121.3517
360.43        119.7889
360.88        118.7787
361.33        118.1307
361.78        117.6218
362.23        116.9084
362.68        115.9111
363.13        114.7842
363.58        113.6819
364.03        112.8098
364.48        112.2031
364.93        111.7458
365.38        111.3347
365.83        110.8308
366.28        110.1854
366.73        109.4553
367.18        108.6415
367.63        107.7371
368.08        106.7663
368.53        105.7372
368.98        104.7428
369.43        103.9315
369.88        103.3294
370.33        102.8971
370.78         102.528
371.23        102.0406
371.68        101.3818
372.13        100.5957
372.58         99.7595
373.03        98.99991
373.48        98.34476
373.93        97.74217
374.38        97.13319
374.83        96.43604
375.28        95.63441
375.72        94.75085
376.17        93.88354
376.62         93.0547
377.07        92.29743
377.52        91.63251
377.97         91.0526
378.42        90.56042
378.87         90.1527
379.32        89.78468
379.77        89.53099
380.22        89.50226
380.67        89.67001
381.11        90.01595
381.56        90.19991
382.01         89.7625
382.46        88.67013
382.91        87.15274
383.36        85.65788
383.81        84.79482
384.26        84.66129
384.71        85.05125
385.15        85.69065
385.60        86.08955
386.05        86.07913
386.50        85.79366
386.95        85.30437
387.40        84.73154
387.85        84.14902
388.29        83.47096
388.74        82.85971
389.19        82.33759
389.64        81.90381
390.09        81.54283
390.54        81.22587
390.98        80.87805
391.43         80.5261
391.88        80.18273
392.33          79.839
392.78        79.46545
393.23        79.06676
393.67        78.65401
394.12        78.33326
394.57        78.03056
395.02        77.78447
395.47        77.73397
395.91        77.83131
396.36        77.80799
396.81        77.65386
397.26        77.49487
397.71         77.3232
398.15        77.09932
398.60        76.92278
399.05        76.59344
399.50        76.19134
399.95        76.19282
400.39        76.46393
400.84        76.07711
401.29        75.13691
401.74        74.69256
402.18         74.7483
402.63        74.42724
403.08        73.81572
403.53        73.56924
403.97        73.69983
404.42        73.90587
404.87        74.05753
405.32        74.04224
405.76        73.81657
406.21        73.47346
406.66        73.09103
407.11        72.83427
407.55        72.79991
408.00        72.77737
408.45        72.76369
408.90        73.16702
409.34        73.68657
409.79        73.21336
410.24        72.02841
410.68        71.48366
411.13        71.67463
411.58         71.8811
412.03        71.92221
412.47        71.82774
412.92        71.52695
413.37        71.06371
413.81        70.60167
414.26        70.43834
414.71        70.59478
415.15        71.01635
415.60        71.51048
416.05        71.81404
416.49        71.84198
416.94        71.66054
417.39        71.40334
417.83        71.26357
418.28        71.30038
418.73        71.45045
419.17        71.63501
419.62        71.73514
420.07        71.71136
420.51        71.58703
420.96        71.45502
421.41        71.38422
421.85         71.3652
422.30        71.46304
422.74        71.53496
423.19        71.41926
423.64        71.10167
424.08        70.78956
424.53        70.56573
424.98        70.46758
425.42        70.53391
425.87        70.84147
426.31         71.2385
426.76        71.21906
427.21        70.83582
427.65        70.62737
428.10        70.64002
428.54        70.66652
428.99        70.75015
429.44        70.73953
429.88        70.76626
430.33        71.39609
430.77        72.29029
431.22        72.79087
431.66        72.71152
432.11        71.89611
432.56        70.71107
433.00        70.32088
433.45        70.98264
433.89        71.77478
434.34        71.87279
434.78        73.13905
435.23        72.02081
435.67         69.6842
436.12        70.75896
436.57         70.9667
437.01        71.58326
437.46        71.91621
437.90        72.04005
438.35        70.81723
438.79        71.29358
439.24        71.15037
439.68        71.24539
440.13        71.57443
440.57        72.09091
441.02        72.31034
441.46        72.19229
441.91        72.62349
442.35        73.28455
442.80         72.9334
443.24        71.84666
443.69        71.87955
444.13        72.90384
444.58        73.31036
445.02        73.03297
445.47        72.98499
445.91        73.20884
446.36        73.38345
446.80        73.49262
447.24        73.61322
447.69        73.72558
448.13        73.77878
448.58        73.78033
449.02        73.71854
449.47         73.6209
449.91        73.48803
450.36        73.35587
450.80        73.24191
451.25        73.18745
451.69        73.11443
452.13         73.0756
452.58        73.23143
453.02        73.51031
453.47        73.64474
453.91        73.58904
454.36        73.48206
454.80        73.32388
455.24        73.02126
455.69        72.60366
456.13        72.21399
456.58         71.9593
457.02        71.52203
457.46        71.12471
457.91        71.56251
458.35        72.47067
458.79        72.60178
459.24        71.92242
459.68        71.00558
460.13        70.19784
460.57        69.81147
461.01        70.00531
461.46        70.32738
461.90        70.53518
462.34        71.77583
462.79        71.40689
463.23        71.53418
463.68        71.38261
464.12        71.10921
464.56        70.69985
465.01        70.07974
465.45        69.38821
465.89        69.07719
466.34         69.1093
466.78        69.27973
467.22        69.54137
467.67        69.14582
468.11        69.22742
468.55        69.12617
468.99        69.13841
469.44          68.957
469.88        68.60633
470.32        68.25916
470.77        67.98944
471.21        67.86671
471.65        67.89165
472.10        68.03275
472.54        68.23033
472.98         68.3269
473.42        68.26584
473.87        68.32814
474.31        68.38862
474.75        67.80507
475.20        66.86356
475.64        66.74467
476.08        67.37577
476.52        67.52276
476.97        67.11295
477.41        67.07883
477.85        67.37959
478.29        66.94151
478.74        67.41739
479.18        67.37854
479.62        67.34477
480.06        67.25411
480.50        67.08076
480.95        67.07863
481.39        67.27979
481.83          66.678
482.27        66.60636
482.72        67.24234
483.16        66.73775
483.60        66.84898
484.04        66.91442
484.48        67.12468
484.93        67.23634
485.37        67.07544
485.81        66.38465
486.25        66.08415
486.69        68.61329
487.14        69.43984
487.58         66.8914
488.02        67.16511
488.46        66.36868
488.90        66.05256
489.34        66.95757
489.79        67.49599
490.23        66.77641
490.67        66.33608
491.11        65.98239
491.55        65.82463
491.99        65.82378
492.43        65.69518
492.88        65.46683
493.32         65.4548
493.76        65.64244
494.20        65.78097
494.64        65.82839
495.08        65.87557
495.52        65.92029
495.96        65.87135
496.41        65.75087
496.85        65.79622
497.29        65.84729
497.73        65.76337
498.17        64.82815
498.61        64.70528
499.05        65.11747
499.49        65.37147
499.93        65.17954
500.37        65.22295
500.82        65.41603
501.26        65.48198
501.70        65.40582
502.14        65.40072
502.58        65.33088
503.02         65.3815
503.46        65.50752
503.90        65.70869
504.34         65.8963
504.78        65.91725
505.22        65.73692
505.66        65.42279
506.10        65.09877
506.54        64.84919
506.98        64.66605
507.42        64.87508
507.86        64.90147
508.30        64.61326
508.74        64.91196
509.18        64.89696
509.62        64.87824
510.06        64.83932
510.50        64.79326
510.94        64.71375
511.38        64.61993
511.82        64.57786
512.26        64.59694
512.70         64.6655
513.14        64.75037
513.58        64.79331
514.02        64.78066
514.46        64.72906
514.90        64.67032
515.34         64.6571
515.78        64.69751
516.22        64.76575
516.66        64.83125
517.10        64.84652
517.54        64.80055
517.98        64.71812
518.42        64.60727
518.86        64.47993
519.30        64.34967
519.74        64.21322
520.18        64.11079
520.62        64.10258
521.06        64.19666
521.50        64.38258
521.93        64.59207
522.37        64.68956
522.81        64.65421
523.25        64.51527
523.69        64.36338
524.13        64.34651
524.57        64.48487
525.01          64.716
525.45        64.93995
525.89        64.99601
526.32        64.84334
526.76        64.57063
527.20        64.23846
527.64        63.94579
528.08        63.73803
528.52        63.57977
528.96        63.51035
529.40          63.607
529.83        63.84901
530.27        64.18134
530.71        64.49761
531.15        64.66281
531.59        64.63895
532.03        64.44707
532.46         64.1689
532.90         63.9974
533.34        63.96773
533.78        63.98959
534.22        64.01546
534.66        64.05006
535.09        64.02696
535.53        63.83234
535.97        63.51669
536.41        63.31886
536.85        63.26909
537.28         63.2423
537.72         63.2479
538.16        63.35167
538.60        63.54076
539.04        63.78934
539.47        64.01863
539.91        64.14996
540.35         64.1504
540.79        64.04549
541.22        63.88995
541.66          63.797
542.10        63.78848
542.54        63.83393
542.97        63.88424
543.41        63.89513
543.85        63.84726
544.29        63.76183
544.72         63.6535
545.16        63.61169
545.60        63.62045
546.04         63.5934
546.47        63.56156
546.91        63.63039
547.35        63.79703
547.79        64.02001
548.22        64.22558
548.66         64.2762
549.10        64.20346
549.53        64.08174
549.97        63.98133
550.41        63.67653
550.84         63.2272
551.28        63.59105
551.72        63.33194
552.15        63.50209
552.59        63.74306
553.03        63.21874
553.46        63.81118
553.90        63.73425
554.34        63.52352
554.77        63.63845
555.21        63.36432
555.65        63.42095
556.08        63.54642
556.52        63.79865
556.96         64.0493
557.39         64.0345
557.83        63.79893
558.27        63.61777
558.70        63.47893
559.14        63.34648
559.57        63.20579
560.01        63.12249
560.45        63.12281
560.88        63.23615
561.32        63.44998
561.75        63.68541
562.19         63.8708
562.63        63.78021
563.06        63.48765
563.50        63.37482
563.93        63.40822
564.37          63.453
564.80        63.49647
565.24        63.37326
565.68        62.98154
566.11        63.62807
566.55        63.03677
566.98         62.9352
567.42        62.79052
567.85        62.99162
568.29        63.47536
568.72        63.81742
569.16        64.06886
569.60        64.19995
570.03        64.40094
570.47        64.61532
570.90        64.96058
571.34        64.26912
571.77        64.71764
572.21         65.0827
572.64         64.7064
573.08        65.13275
573.51        64.12659
573.95        64.23038
574.38        64.94016
574.82        65.02757
