SpectraSmart Spectrum 2.9.0.0
--------- Device Information -----------
Spectrum Name :  反射率_0
Saving Time :  2024/04/26 23:51:10
Spectro-Module Model Name : SE2030-DUVN
Spectro-Module Serial Number : OS361AC55029948
Wavelength Start : 200
Wavelength End : 1025
Wavelength Unit : Wavelength(nm)
Spectrum Unit : Reflectance(%)
-----------Spectrum Setting ------------
Integration Time : 20ms
Average : 10
Boxcar : 0
Background removal :  enabled
linearity correction :  enabled
SC :  disabled
Intensity correction :  disabled
DWT denoise :  enabled
savitzky-golay :  disabled
FFT :  disabled
Running average :  disabled
Kalman :  disabled
High pass :  disabled
---------------BEGIN--------------------
Wavelength(nm)             Reflectance(%)
200.29               0
200.75        43.59844
201.21        42.39075
201.67        42.27729
202.13         43.6371
202.58        46.47897
203.04        51.51962
203.50        58.32585
203.96        63.85701
204.42        65.78672
204.88        63.92984
205.34        60.32599
205.80        59.90238
206.26        63.39562
206.72         67.9753
207.18        71.88717
207.64        74.02257
208.10        74.41306
208.55        74.43835
209.01        71.82728
209.47        63.74681
209.93        53.88693
210.39        46.42619
210.85        42.82396
211.31        42.95691
211.77        46.82256
212.23         57.4901
212.69        87.61894
213.14         149.293
213.60        165.6133
214.06        137.3042
214.52        111.4624
214.98         94.9847
215.44        82.14156
215.90        68.04198
216.36        55.57235
216.81        50.55468
217.27        55.20798
217.73        71.54776
218.19        95.67923
218.65        102.6989
219.11        84.81981
219.57        59.66152
220.02         42.7436
220.48        40.45282
220.94        51.02757
221.40        74.88458
221.86        110.7773
222.32        134.2448
222.77        124.5236
223.23        97.77699
223.69        72.21095
224.15        58.03972
224.61        53.07493
225.06        52.11009
225.52        52.83783
225.98         52.9896
226.44        52.16315
226.90        51.32005
227.36        50.55726
227.81        49.86222
228.27        49.38258
228.73        48.68386
229.19         48.1744
229.65        48.45541
230.10        49.43989
230.56        51.04932
231.02        52.24325
231.48        51.41654
231.93         48.5417
232.39         44.6394
232.85        41.19487
233.31        40.13763
233.77        41.56869
234.22         44.8274
234.68        48.60682
235.14        50.91488
235.60        51.18568
236.05         49.9783
236.51        48.10208
236.97        47.33879
237.43        48.41491
237.88        50.77762
238.34        53.81781
238.80        56.87849
239.26        59.83578
239.71        63.59024
240.17         67.7672
240.63        71.41708
241.08        73.97614
241.54        74.49575
242.00        75.05036
242.46        80.61259
242.91        94.98682
243.37        121.1692
243.83        160.3164
244.28        195.0776
244.74        198.9651
245.20        171.1948
245.66        134.0629
246.11        108.1815
246.57        94.95439
247.03        88.51245
247.48        85.92603
247.94        83.53332
248.40         80.9665
248.85        79.62267
249.31        79.68288
249.77        80.48353
250.22        81.82345
250.68        83.31592
251.14        85.07206
251.59          87.113
252.05        88.95416
252.51        90.68875
252.96        90.47813
253.42        87.32891
253.88        82.07758
254.33         75.6947
254.79          71.414
255.25        71.51958
255.70        75.34053
256.16        81.50116
256.62        86.86897
257.07        86.83431
257.53        82.68639
257.99        77.29971
258.44         72.4697
258.90        70.02461
259.35        69.02683
259.81         68.9429
260.27        69.04671
260.72        68.64665
261.18        67.88383
261.63        66.70933
262.09        65.62738
262.55        64.59782
263.00         63.5324
263.46        62.59668
263.91        61.47326
264.37        60.14783
264.83        58.63174
265.28        56.96906
265.74        55.59895
266.19        54.72779
266.65        54.41448
267.11        54.43769
267.56         54.4964
268.02        54.12584
268.47        53.21022
268.93        51.93164
269.38        50.46373
269.84        49.14394
270.30        48.04998
270.75         47.0729
271.21        46.19888
271.66        45.33583
272.12        44.45993
272.57        43.59501
273.03         42.7183
273.48        41.76721
273.94        40.80394
274.39        39.81409
274.85        38.92905
275.31        38.18702
275.76        37.56401
276.22        37.07075
276.67        36.62119
277.13        36.19432
277.58        35.71695
278.04        35.22039
278.49        34.65784
278.95        34.08774
279.40        33.47458
279.86        32.89388
280.31        32.28017
280.77        31.65293
281.22        30.98888
281.68        30.35818
282.13        29.81071
282.59        29.50157
283.04        29.40173
283.50        29.48071
283.95        29.60193
284.41        29.56322
284.86        29.32059
285.32        28.96952
285.77        28.61529
286.22        28.47367
286.68        28.57691
287.13        28.80836
287.59        29.08797
288.04        29.24689
288.50        29.26377
288.95        29.17032
289.41         29.0205
289.86        28.81802
290.32        28.63093
290.77        28.45806
291.22        28.37268
291.68        28.46762
292.13        28.75874
292.59         29.2529
293.04        29.92933
293.50        30.76245
293.95        31.72183
294.40        32.81275
294.86        34.00735
295.31        35.25436
295.77        36.54628
296.22         37.8657
296.68        39.24564
297.13        40.73046
297.58        42.33315
298.04        44.03568
298.49        45.79013
298.95        47.54042
299.40        49.25563
299.85        50.96106
300.31        52.68111
300.76        54.42953
301.21         56.2257
301.67        58.07922
302.12        59.96466
302.58        61.93386
303.03        63.93848
303.48        65.99203
303.94        68.08363
304.39        70.12659
304.84        72.13402
305.30        74.12886
305.75        76.09399
306.20        78.10085
306.66        80.16576
307.11        82.22195
307.57        84.22503
308.02        85.99656
308.47        87.53856
308.93        88.90398
309.38        90.19167
309.83        91.67504
310.29        93.40708
310.74        95.30943
311.19        97.16526
311.65        98.58836
312.10        99.47469
312.55        99.93851
313.00        100.2802
313.46        100.9707
313.91        102.0862
314.36        103.5119
314.82        104.9586
315.27        105.9703
315.72        106.4119
316.18        106.4653
316.63         106.357
317.08        106.4913
317.53        106.9762
317.99        107.6673
318.44        108.4279
318.89        109.0052
319.35        109.3176
319.80        109.4684
320.25        109.5265
320.70        109.5934
321.16        109.7147
321.61         109.896
322.06        110.1339
322.51        110.4424
322.97        110.7961
323.42        111.1849
323.87        111.6297
324.32         112.185
324.78        112.7989
325.23        113.5275
325.68         114.124
326.13        114.2083
326.59        113.7309
327.04        112.8545
327.49        111.9682
327.94        111.7189
328.39        112.2536
328.85        113.3527
329.30        114.7721
329.75        115.7787
330.20         116.123
330.66         115.977
331.11         115.634
331.56        115.4983
332.01        115.7147
332.46        116.1184
332.92        116.5746
333.37        117.0471
333.82        117.4244
334.27        117.8047
334.72        118.1448
335.17         118.335
335.63        118.3761
336.08        118.3605
336.53        118.4629
336.98        119.0294
337.43        120.1213
337.88        121.5975
338.34        123.2038
338.79        124.6361
339.24        125.6791
339.69        126.3953
340.14        126.7589
340.59        126.7637
341.05        126.5075
341.50        126.0239
341.95        125.5318
342.40        125.3635
342.85        125.6129
343.30        126.2115
343.75        127.0591
344.20        127.9537
344.66        128.7946
345.11        129.6035
345.56        130.2972
346.01        130.7633
346.46        131.0023
346.91        131.0454
347.36        131.0008
347.81         131.069
348.26        131.2892
348.72        131.5822
349.17        131.9122
349.62         132.256
350.07         132.575
350.52        132.9085
350.97        133.0637
351.42        132.7319
351.87        131.9094
352.32        130.7161
352.77        129.5676
353.22        129.0692
353.67        129.3266
354.13        130.1657
354.58        131.1664
355.03         131.572
355.48        131.1772
355.93        130.1848
356.38        129.0458
356.83        128.4492
357.28        128.5211
357.73         129.013
358.18        129.4738
358.63        129.1917
359.08         128.017
359.53         126.234
359.98         124.279
360.43        122.7704
360.88        121.8604
361.33        121.3575
361.78        121.0067
362.23        120.4106
362.68        119.4679
363.13        118.3325
363.58        117.1679
364.03        116.2028
364.48        115.4847
364.93        114.9007
365.38        114.3497
365.83        113.6967
366.28        112.9017
366.73        112.0265
367.18        111.1012
367.63        110.1573
368.08        109.2202
368.53        108.2856
368.98        107.3895
369.43        106.5888
369.88         105.892
370.33        105.2855
370.78        104.7294
371.23        104.1582
371.68        103.5472
372.13        102.8999
372.58        102.2326
373.03        101.5754
373.48        100.9245
373.93        100.2573
374.38        99.54043
374.83        98.73259
375.28        97.83909
375.72        96.87654
376.17        95.94342
376.62        95.06284
377.07        94.26573
377.52        93.56833
377.97        92.97966
378.42        92.52402
378.87        92.19363
379.32        91.93583
379.77        91.76752
380.22        91.71446
380.67        91.73976
381.11        91.85126
381.56         91.7966
382.01        91.27475
382.46        90.28806
382.91        89.00804
383.36        87.77886
383.81        87.06705
384.26        86.93349
384.71         87.2057
385.15        87.66671
385.60         87.9219
386.05        87.83709
386.50        87.52869
386.95        87.01298
387.40        86.33033
387.85        85.55011
388.29        84.62192
388.74        83.80782
389.19        83.25389
389.64        82.97527
390.09         82.9273
390.54        82.94705
390.98        82.73693
391.43        82.27798
391.88        81.65134
392.33        81.03533
392.78         80.6376
393.23        80.48213
393.67        80.57435
394.12        80.80774
394.57        80.57068
395.02        79.95587
395.47        79.71832
395.91        79.85653
396.36        79.71147
396.81         79.3001
397.26        79.01653
397.71        78.85444
398.15        78.61705
398.60        78.38969
399.05        78.09069
399.50        77.77229
399.95        77.68481
400.39        77.75854
400.84         77.5039
401.29        76.96197
401.74        76.58315
402.18        76.41328
402.63        76.17966
403.08        75.92525
403.53        75.80021
403.97          75.786
404.42        75.82681
404.87        75.84904
405.32        75.68544
405.76        75.30573
406.21        74.95565
406.66        74.64391
407.11        74.11456
407.55        73.59966
408.00        73.62234
408.45        74.12357
408.90        74.76691
409.34         75.1623
409.79        74.53453
410.24        73.24368
410.68        72.67364
411.13        72.94122
411.58        73.26408
412.03        73.44038
412.47        73.49684
412.92        73.33704
413.37         72.9978
413.81        72.60831
414.26        72.42422
414.71        72.46756
415.15        72.69633
415.60        72.98313
416.05        73.18794
416.49        73.26108
416.94        73.23675
417.39        73.17963
417.83        73.16788
418.28        73.23117
418.73        73.34258
419.17        73.45905
419.62        73.51962
420.07        73.49564
420.51        73.38303
420.96        73.27249
421.41        73.18962
421.85        73.11752
422.30        73.26456
422.74        73.44484
423.19        73.16969
423.64        72.54337
424.08         72.3764
424.53        72.69801
424.98        72.88766
425.42        72.91844
425.87        73.27979
426.31        73.80193
426.76        73.65385
427.21        72.95497
427.65        72.60652
428.10        72.65151
428.54        72.64217
428.99        72.62862
429.44        72.51276
429.88        72.47901
430.33        73.29762
430.77        74.51003
431.22        75.05011
431.66        74.74767
432.11        73.76086
432.56        72.55129
433.00        72.23307
433.45        73.03229
433.89        74.07153
434.34        74.42233
434.78        75.51298
435.23        74.05723
435.67        71.79811
436.12        72.25369
436.57        72.58311
437.01        73.61842
437.46        74.07935
437.90        73.95748
438.35        73.09511
438.79        73.25019
439.24        73.39426
439.68        73.24853
440.13        73.55791
440.57        74.07484
441.02        74.14248
441.46        73.84146
441.91        74.60904
442.35        75.87519
442.80         75.5344
443.24        73.94522
443.69        73.62603
444.13        74.50201
444.58        75.23206
445.02        74.61263
445.47        74.73469
445.91         75.2324
446.36        75.58624
446.80        75.74038
447.24         75.8509
447.69        75.93915
448.13        75.98988
448.58        76.03015
449.02        76.01479
449.47        75.97704
449.91        75.94745
450.36        75.95815
450.80        75.98637
451.25        76.03165
451.69         76.0278
452.13        75.98048
452.58        75.89892
453.02        75.82191
453.47        75.82165
453.91        75.89227
454.36        76.01328
454.80        76.09621
455.24        75.93623
455.69        75.51814
456.13        75.06981
456.58        74.72954
457.02         74.1057
457.46        73.50386
457.91        73.95978
458.35        75.04198
458.79        75.22175
459.24        74.48706
459.68        73.41523
460.13        72.36654
460.57        72.09699
461.01        72.69524
461.46        72.17878
461.90        73.19243
462.34        74.18785
462.79        73.55864
463.23        73.63602
463.68           73.68
464.12        73.61691
464.56        73.32904
465.01        72.59996
465.45        71.68192
465.89        71.52332
466.34        71.98667
466.78        72.27592
467.22        72.33852
467.67        71.80166
468.11        71.90196
468.55        71.89469
468.99        72.06708
469.44        72.00317
469.88        71.71118
470.32        71.47056
470.77        71.30851
471.21        71.15067
471.65        70.99734
472.10        70.87931
472.54        70.81863
472.98        70.81493
473.42         70.8455
473.87        71.03989
474.31         71.2326
474.75        70.93827
475.20        70.29837
475.64        70.04051
476.08        70.21591
476.52        70.08605
476.97         69.5938
477.41        69.62982
477.85        70.12028
478.29        69.19923
478.74        69.87627
479.18         70.1908
479.62        69.91029
480.06        69.90997
480.50        69.83614
480.95        69.84318
481.39        69.94221
481.83        69.50153
482.27        69.35838
482.72        69.79693
483.16        69.74918
483.60        69.28827
484.04        69.68854
484.48        69.89912
484.93        70.23921
485.37        69.77338
485.81        69.40428
486.25        69.18113
486.69        71.03461
487.14         71.9149
487.58        69.96511
488.02         70.5964
488.46        68.82069
488.90        68.57044
489.34        69.98875
489.79        70.33566
490.23        69.94655
490.67        69.39857
491.11        68.96859
491.55        68.79565
491.99        68.85071
492.43        68.70183
492.88        68.36033
493.32        68.25107
493.76        68.38586
494.20        68.50132
494.64        68.55805
495.08        68.69086
495.52        68.84863
495.96        68.77455
496.41        68.52352
496.85        68.54985
497.29        68.68974
497.73        68.71237
498.17        67.78452
498.61        67.67117
499.05        67.51623
499.49        67.88657
499.93        68.19321
500.37        68.27921
500.82         68.0878
501.26        68.11193
501.70        68.34684
502.14        68.40641
502.58        68.30879
503.02        68.28847
503.46        68.35671
503.90         68.4325
504.34        68.46873
504.78        68.40334
505.22        68.22766
505.66        67.98546
506.10        67.76149
506.54        67.62156
506.98        67.57822
507.42        67.70802
507.86        67.98895
508.30        67.80715
508.74        68.04298
509.18         67.9949
509.62        67.93529
510.06        67.84634
510.50        67.74456
510.94        67.61263
511.38        67.48766
511.82        67.45679
512.26        67.53091
512.70         67.6944
513.14        67.87148
513.58        67.93456
514.02        67.85631
514.46        67.67041
514.90        67.46803
515.34        67.39855
515.78        67.49304
516.22        67.70094
516.66        67.92559
517.10         68.0132
517.54        67.92805
517.98        67.72478
518.42        67.48299
518.86        67.32937
519.30        67.29939
519.74        67.34474
520.18        67.42419
520.62        67.48151
521.06        67.50111
521.50        67.48144
521.93        67.48959
522.37        67.45274
522.81        67.40113
523.25        67.32832
523.69        67.30308
524.13        67.36499
524.57        67.50003
525.01         67.8119
525.45        68.22905
525.89        67.91856
526.32        67.97783
526.76        67.58317
527.20        67.16795
527.64        66.86337
528.08        66.72507
528.52        66.68887
528.96        66.72873
529.40        66.83091
529.83        66.96436
530.27        67.14515
530.71        67.29843
531.15        67.30767
531.59        67.15883
532.03        66.88254
532.46         66.5762
532.90        66.44148
533.34        66.50109
533.78        66.68228
534.22         66.9012
534.66        67.03259
535.09        66.97623
535.53        66.92921
535.97        66.44857
536.41        66.27028
536.85        66.27963
537.28        66.33629
537.72        66.40884
538.16        66.51029
538.60        66.62383
539.04        66.74992
539.47        66.84211
539.91        66.86792
540.35        66.81036
540.79        66.68034
541.22        66.53814
541.66         66.5052
542.10        66.59438
542.54        66.76952
542.97        66.94027
543.41        66.99657
543.85         66.9015
544.29        66.70222
544.72        66.46241
545.16        66.30714
545.60        66.26077
546.04         66.3366
546.47         66.4868
546.91        66.57597
547.35         66.6249
547.79        66.72935
548.22        66.87988
548.66        67.14752
549.10        67.46021
549.53        67.27994
549.97        66.72445
550.41        66.34106
550.84        66.25903
551.28        66.30412
551.72        66.39529
552.15        66.53711
552.59        66.76196
553.03        66.40578
553.46         66.9099
553.90        66.85242
554.34        66.68388
554.77        66.57967
555.21        66.38232
555.65        66.30528
556.08        66.43578
556.52        66.61297
556.96        66.79866
557.39         66.8966
557.83         66.8392
558.27        66.73745
558.70        66.12229
559.14        65.94185
559.57        66.01741
560.01        66.05161
560.45        66.03635
560.88        66.12199
561.32        66.31544
561.75        66.58523
562.19        66.85307
562.63        66.74192
563.06         66.3513
563.50        66.30112
563.93        66.51678
564.37        66.55913
564.80        66.45193
565.24        66.34274
565.68        66.10008
566.11        66.81953
566.55        66.10223
566.98        65.93378
567.42        65.75057
567.85        65.86823
568.29        66.27376
568.72         66.6161
569.16        66.89232
569.60         67.2805
570.03        67.22852
570.47        67.39944
570.90          67.772
571.34        66.94351
571.77        67.40768
572.21        68.00895
572.64        67.91415
573.08        67.95845
573.51        67.04582
573.95        66.96133
574.38        67.61546
574.82        67.97201
