SpectraSmart Spectrum 2.9.0.0
--------- Device Information -----------
Spectrum Name :  反射率_0
Saving Time :  2024/04/26 23:49:38
Spectro-Module Model Name : SE2030-DUVN
Spectro-Module Serial Number : OS361AC55029948
Wavelength Start : 200
Wavelength End : 1025
Wavelength Unit : Wavelength(nm)
Spectrum Unit : Reflectance(%)
-----------Spectrum Setting ------------
Integration Time : 20ms
Average : 10
Boxcar : 0
Background removal :  enabled
linearity correction :  enabled
SC :  disabled
Intensity correction :  disabled
DWT denoise :  enabled
savitzky-golay :  disabled
FFT :  disabled
Running average :  disabled
Kalman :  disabled
High pass :  disabled
---------------BEGIN--------------------
Wavelength(nm)             Reflectance(%)
200.29               0
200.75        52.97261
201.21        49.08605
201.67        46.17682
202.13        43.90042
202.58        41.81941
203.04        40.09158
203.50        39.30015
203.96        40.78652
204.42        45.27091
204.88        52.46013
205.34        59.82045
205.80        63.09441
206.26        61.37223
206.72        56.12552
207.18        50.64868
207.64        47.71969
208.10        47.50345
208.55        50.03268
209.01        54.03301
209.47        54.95546
209.93         51.3561
210.39          46.573
210.85        43.77232
211.31        44.72239
211.77        50.21764
212.23        64.24955
212.69        99.10327
213.14        152.7773
213.60        140.6206
214.06        95.65125
214.52        68.48253
214.98        58.45053
215.44        56.63509
215.90        57.98323
216.36        61.09794
216.81        64.44552
217.27        67.78122
217.73        73.22456
218.19        79.18803
218.65        77.81339
219.11        68.93008
219.57        58.49463
220.02        52.32475
220.48        53.42487
220.94        61.13988
221.40        76.54721
221.86        98.94691
222.32         112.944
222.77        105.7683
223.23        87.94431
223.69        70.72371
224.15          60.321
224.61        55.40555
225.06        52.77245
225.52         51.6348
225.98        51.03474
226.44        50.62013
226.90        50.86974
227.36        50.90309
227.81        49.26561
228.27        46.18415
228.73         42.1306
229.19        38.95539
229.65         38.8143
230.10        41.57611
230.56        46.42705
231.02        51.13299
231.48        52.11573
231.93        48.94518
232.39        43.50648
232.85        38.12801
233.31        35.76409
233.77        36.72728
234.22        39.94055
234.68        44.01579
235.14        46.89228
235.60         47.9136
236.05        47.77222
236.51         46.9486
236.97        46.43714
237.43        46.72332
237.88        47.38446
238.34        48.44645
238.80         50.3566
239.26         53.3843
239.71        58.36981
240.17        64.76115
240.63        70.52814
241.08          74.248
241.54        74.93708
242.00        75.03587
242.46        80.54347
242.91        95.97222
243.37        124.7768
243.83        167.9439
244.28        205.5234
244.74        208.2844
245.20         175.882
245.66         135.833
246.11         113.737
246.57        110.4157
247.03        118.1217
247.48         127.973
247.94        125.7277
248.40        112.6729
248.85        97.80434
249.31         86.5601
249.77        80.73244
250.22        79.13587
250.68        79.94629
251.14        82.31074
251.59        83.90308
252.05        83.55112
252.51        82.92502
252.96        81.41893
253.42        78.87943
253.88        75.57406
254.33        71.28179
254.79        68.69859
255.25        69.79563
255.70        73.94002
256.16        80.21212
256.62        84.95358
257.07        83.03915
257.53         76.5168
257.99        68.89281
258.44        62.90422
258.90        60.94149
259.35        61.69316
259.81        64.05027
260.27        66.33429
260.72         66.5827
261.18        64.99077
261.63         62.2327
262.09        59.63844
262.55        58.03379
263.00        57.31151
263.46        57.20731
263.91        56.93876
264.37        55.87048
264.83        53.98367
265.28        51.61977
265.74        49.54162
266.19        48.37709
266.65        48.21965
267.11        48.67633
267.56        49.23278
268.02        49.08915
268.47        48.05649
268.93        46.46564
269.38        44.63141
269.84        43.08584
270.30        41.97449
270.75        41.10863
271.21        40.47226
271.66        39.98964
272.12        39.59977
272.57        39.31256
273.03        38.97153
273.48        38.29876
273.94        37.31495
274.39        36.08078
274.85        34.86797
275.31        33.92853
275.76        33.28944
276.22        32.89795
276.67        32.60524
277.13        32.28047
277.58        31.83869
278.04        31.35922
278.49        30.83623
278.95         30.3718
279.40        29.93574
279.86        29.55314
280.31         29.1494
280.77        28.72895
281.22        28.25455
281.68        27.79253
282.13        27.35553
282.59        27.03554
283.04        26.81485
283.50         26.6954
283.95        26.61657
284.41        26.49643
284.86        26.31986
285.32        26.13443
285.77        25.99495
286.22        26.03994
286.68        26.27458
287.13        26.60275
287.59        26.93599
288.04        27.09593
288.50        27.06655
288.95        26.88784
289.41        26.64002
289.86        26.37377
290.32        26.16574
290.77        26.00583
291.22        25.95412
291.68        26.08143
292.13        26.39536
292.59        26.90536
293.04        27.58239
293.50        28.38839
293.95        29.28826
294.40        30.28184
294.86        31.35442
295.31        32.47876
295.77        33.65485
296.22        34.87232
296.68        36.14186
297.13        37.46976
297.58        38.87375
298.04        40.35862
298.49        41.93589
298.95        43.63951
299.40        45.44822
299.85         47.3402
300.31        49.27365
300.76        51.16533
301.21        53.00118
301.67        54.81836
302.12         56.5999
302.58        58.40888
303.03        60.22067
303.48        62.05221
303.94        63.93565
304.39        65.85603
304.84        67.83096
305.30        69.85603
305.75         71.8742
306.20        73.88546
306.66        75.88587
307.11        77.83811
307.57        79.69964
308.02        81.30215
308.47        82.66158
308.93        83.82984
309.38        84.94826
309.83        86.35146
310.29         88.0942
310.74        90.07164
311.19        92.01523
311.65        93.45184
312.10        94.25749
312.55        94.58263
313.00        94.74519
313.46        95.24284
313.91        96.17074
314.36        97.40047
314.82        98.69321
315.27        99.67426
315.72        100.2165
316.18        100.4782
316.63        100.5911
317.08        100.8028
317.53        101.1956
317.99        101.6774
318.44        102.2104
318.89        102.7111
319.35        103.1373
319.80        103.5214
320.25        103.8643
320.70        104.1623
321.16        104.4155
321.61        104.6592
322.06        104.8698
322.51        105.0261
322.97        105.1205
323.42        105.1685
323.87        105.2725
324.32         105.618
324.78        106.1955
325.23        107.0286
325.68        107.8422
326.13        108.1886
326.59        107.9681
327.04        107.3372
327.49        106.6431
327.94        106.4735
328.39        106.9697
328.85        107.9316
329.30        109.1395
329.75        109.9333
330.20        110.1029
330.66        109.8087
331.11        109.3887
331.56         109.311
332.01          109.72
332.46        110.4438
332.92        111.2283
333.37        111.8151
333.82        112.0423
334.27          112.06
334.72        111.9854
335.17         111.985
335.63        112.1329
336.08         112.438
336.53         112.929
336.98         113.707
337.43        114.7546
337.88        115.9966
338.34        117.2845
338.79        118.4848
339.24        119.4499
339.69        120.2073
340.14        120.6485
340.59        120.6352
341.05        120.2416
341.50        119.5499
341.95        118.9071
342.40        118.8358
342.85        119.4478
343.30        120.5918
343.75        121.9836
344.20        123.1263
344.66        123.8443
345.11        124.2542
345.56        124.4361
346.01        124.5366
346.46        124.6432
346.91        124.7275
347.36        124.8233
347.81        125.0104
348.26        125.2934
348.72        125.6352
349.17        126.0567
349.62        126.6107
350.07        127.2654
350.52        128.0163
350.97        128.5761
351.42        128.4968
351.87        127.7389
352.32        126.4568
352.77        125.1674
353.22        124.6334
353.67        124.9926
354.13        126.0273
354.58          127.22
355.03        127.6491
355.48        127.0829
355.93        125.8062
356.38        124.3772
356.83        123.6366
357.28        123.7521
357.73        124.4225
358.18        125.1598
358.63        125.1877
359.08        124.3129
359.53         122.825
359.98        121.1195
360.43        119.7606
360.88        118.8924
361.33        118.3264
361.78        117.8571
362.23        117.1746
362.68        116.2046
363.13        115.0912
363.58        113.9568
364.03        112.9573
364.48        112.1329
364.93        111.4049
365.38        110.7377
365.83        110.0961
366.28        109.4599
366.73        108.8519
367.18         108.232
367.63        107.5268
368.08        106.7275
368.53        105.8501
368.98        104.9688
369.43        104.2064
369.88        103.5872
370.33        103.0746
370.78        102.5915
371.23        102.0126
371.68        101.3067
372.13        100.5133
372.58        99.69902
373.03        98.96649
373.48        98.33511
373.93        97.75961
374.38         97.1879
374.83        96.54601
375.28         95.8166
375.72        95.01652
376.17        94.22353
376.62        93.43349
377.07        92.67585
377.52        91.97556
377.97         91.3564
378.42        90.87296
378.87        90.52656
379.32        90.25082
379.77        90.07442
380.22        90.03918
380.67        90.10492
381.11        90.28017
381.56        90.26357
382.01        89.66783
382.46        88.49009
382.91         86.9421
383.36        85.45889
383.81        84.62935
384.26        84.53903
384.71        84.98614
385.15        85.68063
385.60        86.10478
386.05        86.08137
386.50        85.74641
386.95        85.18876
387.40        84.55985
387.85        83.94444
388.29        83.25674
388.74        82.64756
389.19        82.11677
389.64        81.66864
390.09        81.30733
390.54        81.02411
390.98        80.77242
391.43        80.56861
391.88        80.39042
392.33        80.21971
392.78        79.99026
393.23        79.68589
393.67        79.40974
394.12        79.20515
394.57        78.70125
395.02        78.03461
395.47        77.83812
395.91        78.05193
396.36        77.97375
396.81        77.58386
397.26        77.27502
397.71        77.06927
398.15        76.82646
398.60         76.6496
399.05        76.42242
399.50        76.15792
399.95        76.15768
400.39        76.33833
400.84        75.93546
401.29        75.10403
401.74        74.99233
402.18        75.48669
402.63        75.24685
403.08        74.37476
403.53        74.01012
403.97        74.17481
404.42        74.25316
404.87        74.17805
405.32        74.01313
405.76        73.71999
406.21        73.58047
406.66        73.53465
407.11        72.95801
407.55         72.1656
408.00        72.33076
408.45        73.34341
408.90        74.06848
409.34        74.14694
409.79        73.54421
410.24        72.55285
410.68        71.98123
411.13        71.93584
411.58        71.91678
412.03        71.80817
412.47        71.68392
412.92        71.49605
413.37        71.26052
413.81        71.05398
414.26        71.05891
414.71        71.26768
415.15        71.64333
415.60        72.04898
416.05        72.32841
416.49         72.4247
416.94        72.37216
417.39        72.23579
417.83        72.10085
418.28        72.01319
418.73        71.95901
419.17        71.93964
419.62        71.95867
420.07        71.99043
420.51        72.00224
420.96        72.03624
421.41        72.01466
421.85        71.89118
422.30        71.98543
422.74        72.11333
423.19         71.5905
423.64        70.63506
424.08        70.51421
424.53        71.18327
424.98        71.51596
425.42        71.44572
425.87        71.63586
426.31        72.02203
426.76         72.0694
427.21        71.80357
427.65        71.51025
428.10        71.23921
428.54        71.12126
428.99        71.22897
429.44        71.04641
429.88        70.79515
430.33         71.7004
430.77        73.21097
431.22        73.63967
431.66         72.9093
432.11        71.98583
432.56        71.32649
433.00        71.08716
433.45        71.45129
433.89        72.71305
434.34        73.92547
434.78        74.11749
435.23        72.64743
435.67        70.19962
436.12        71.16132
436.57        71.49529
437.01        72.07892
437.46         72.8129
437.90         72.3036
438.35        71.74533
438.79        71.74773
439.24        71.67374
439.68        71.76298
440.13        72.18861
440.57        72.87372
441.02        72.95898
441.46        72.53057
441.91        73.16168
442.35        74.43965
442.80        73.95718
443.24        72.97044
443.69        72.83224
444.13        73.75695
444.58         74.0673
445.02        73.71397
445.47        73.62647
445.91        73.87448
446.36        74.09525
446.80        74.24438
447.24        74.80338
447.69        75.08868
448.13        75.15179
448.58        75.06838
449.02        74.99297
449.47        75.01912
449.91        74.93027
450.36        74.77529
450.80        74.67413
451.25        74.65255
451.69        74.61652
452.13        74.57758
452.58        74.55732
453.02        74.55503
453.47        74.57298
453.91         74.5909
454.36        74.60466
454.80        74.58594
455.24        74.39511
455.69        74.02489
456.13         73.7294
456.58        73.60397
457.02          72.852
457.46        72.37603
457.91        72.61626
458.35        73.42638
458.79        73.47935
459.24        72.74733
459.68        71.84883
460.13         71.1332
460.57        70.77268
461.01        70.88644
461.46        71.32314
461.90         71.8378
462.34        72.38407
462.79        71.95573
463.23        71.98445
463.68        72.10443
464.12        72.01263
464.56         71.6507
465.01        70.81211
465.45         69.9881
465.89        69.84978
466.34        70.30782
466.78        70.56166
467.22        70.58252
467.67        69.94064
468.11        70.12465
468.55        70.06715
468.99        70.12634
469.44        69.96281
469.88        69.59103
470.32        69.23513
470.77        68.96416
471.21        68.79984
471.65        68.75194
472.10        68.82571
472.54        68.95582
472.98        69.01123
473.42        68.94726
473.87        68.91428
474.31        68.86333
474.75        68.52953
475.20        68.04902
475.64        68.02084
476.08        68.41608
476.52        68.37652
476.97         67.7906
477.41        68.01591
477.85        68.01192
478.29        67.30632
478.74        67.92368
479.18        68.40046
479.62          68.025
480.06        68.01219
480.50        67.89788
480.95        67.93862
481.39        68.19813
481.83        67.38727
482.27         67.2749
482.72        68.11869
483.16        67.68565
483.60        67.47968
484.04        67.79311
484.48        68.01138
484.93        68.27173
485.37        67.80604
485.81        67.50825
486.25        67.06017
486.69        69.37521
487.14        70.05094
487.58        67.46867
488.02        67.93645
488.46        67.19875
488.90        66.42813
489.34        67.53416
489.79         68.8188
490.23        67.72115
490.67        67.34157
491.11        66.92673
491.55        66.75264
491.99        66.76037
492.43        66.58906
492.88        66.28523
493.32        66.21909
493.76        66.39787
494.20        66.53303
494.64        66.57246
495.08        66.70463
495.52        66.87904
495.96        66.69193
496.41        66.24477
496.85        66.31887
497.29        66.72401
497.73        66.59806
498.17        65.75531
498.61        65.53215
499.05        65.86282
499.49        66.27363
499.93        66.38395
500.37        66.32639
500.82        66.09883
501.26        66.10202
501.70        66.34359
502.14        66.51534
502.58        66.59142
503.02        66.66843
503.46        66.73322
503.90        66.79648
504.34        66.80386
504.78        66.59113
505.22        66.19927
505.66         65.8629
506.10        65.70508
506.54        65.62922
506.98        65.55673
507.42        65.87659
507.86        66.08241
508.30        65.47055
508.74         65.9922
509.18        65.84328
509.62        65.67566
510.06        65.55202
510.50        65.50999
510.94         65.4825
511.38        65.45639
511.82        65.47211
512.26        65.52443
512.70        65.61723
513.14        65.71599
513.58          65.758
514.02        65.73196
514.46        65.64941
514.90        65.56563
515.34        65.57343
515.78        65.68598
516.22        65.86806
516.66        66.04501
517.10        66.09756
517.54        66.00129
517.98        65.80241
518.42         65.5638
518.86        65.38604
519.30        65.30115
519.74        65.27563
520.18        65.29585
520.62        65.33771
521.06        65.38852
521.50        65.46626
521.93        65.54186
522.37        65.54371
522.81        65.47188
523.25        65.33537
523.69        65.20551
524.13        65.19984
524.57        65.33098
525.01        65.55273
525.45        65.77047
525.89        65.82937
526.32        65.68985
526.76        65.43024
527.20        65.11949
527.64        64.87109
528.08        64.72594
528.52        64.64751
528.96        64.64185
529.40        64.71811
529.83        64.85779
530.27        65.06361
530.71        65.26093
531.15        65.33415
531.59        65.26157
532.03        65.07117
532.46        64.83199
532.90        64.70433
533.34        64.71347
533.78        64.77943
534.22        64.84738
534.66        64.91219
535.09        64.90382
535.53        64.70003
535.97        64.36776
536.41        64.17788
536.85         64.1636
537.28         64.1914
537.72        64.23689
538.16        64.31146
538.60        64.39685
539.04        64.49079
539.47        64.56496
539.91        64.61629
540.35        64.62801
540.79        64.60241
541.22        64.55424
541.66         64.5306
542.10        64.53522
542.54        64.56026
542.97         64.5754
543.41        64.56339
543.85        64.50668
544.29        64.41918
544.72        64.31945
545.16        64.25276
545.60        64.21888
546.04        64.28069
546.47        64.40257
546.91        64.39529
547.35        64.32016
547.79        64.44209
548.22        64.72069
548.66         64.9806
549.10        65.17849
549.53        65.05518
549.97        64.70277
550.41        64.41435
550.84         64.3005
551.28        64.32351
551.72        64.40005
552.15        64.47396
552.59        64.58537
553.03        64.13778
553.46        64.49048
553.90        64.48132
554.34        64.49699
554.77        64.56113
555.21        64.67529
555.65          64.696
556.08        64.74259
556.52        64.70348
556.96        64.57315
557.39          64.589
557.83        64.69207
558.27        64.55816
558.70        64.21494
559.14        64.01361
559.57        63.97726
560.01        63.96936
560.45        64.00594
560.88        64.19238
561.32        64.48679
561.75        64.72267
562.19        64.84698
562.63        64.72202
563.06        64.44192
563.50        64.36707
563.93        64.44575
564.37        64.52963
564.80         64.5834
565.24         64.3979
565.68         63.8987
566.11         64.4981
566.55        63.89798
566.98        63.81781
567.42         63.7032
567.85        63.91079
568.29        64.38599
568.72        64.77189
569.16        65.10162
569.60        65.25503
570.03        65.43459
570.47        65.59484
570.90         65.8672
571.34        65.12518
571.77        65.68032
572.21        65.68713
572.64        65.67413
573.08        65.77431
573.51          65.033
573.95        65.06493
574.38        65.68996
574.82        65.77635
