SpectraSmart Spectrum 2.9.0.0
--------- Device Information -----------
Spectrum Name :  反射率_0
Saving Time :  2024/04/26 23:49:15
Spectro-Module Model Name : SE2030-DUVN
Spectro-Module Serial Number : OS361AC55029948
Wavelength Start : 200
Wavelength End : 1025
Wavelength Unit : Wavelength(nm)
Spectrum Unit : Reflectance(%)
-----------Spectrum Setting ------------
Integration Time : 20ms
Average : 10
Boxcar : 0
Background removal :  enabled
linearity correction :  enabled
SC :  disabled
Intensity correction :  disabled
DWT denoise :  enabled
savitzky-golay :  disabled
FFT :  disabled
Running average :  disabled
Kalman :  disabled
High pass :  disabled
---------------BEGIN--------------------
Wavelength(nm)             Reflectance(%)
200.29               0
200.75        51.96554
201.21          47.451
201.67        43.97007
202.13         42.7798
202.58        43.81086
203.04        47.31916
203.50        53.07549
203.96        58.82364
204.42        62.59688
204.88        64.14082
205.34        63.98914
205.80        64.28513
206.26        65.37272
206.72        65.83253
207.18        65.40628
207.64        63.80962
208.10        60.78728
208.55         56.6479
209.01        49.77929
209.47        41.33373
209.93         35.7316
210.39        33.78013
210.85        34.21644
211.31        36.07272
211.77        39.76311
212.23        48.08569
212.69        69.79836
213.14        111.7408
213.60        118.7757
214.06        96.00982
214.52        77.60287
214.98        67.43911
215.44        60.89158
215.90         54.5881
216.36        49.53453
216.81         47.9679
217.27        51.04835
217.73        60.43229
218.19        74.44304
218.65        79.98316
219.11        72.17999
219.57        59.47711
220.02        51.08092
220.48        51.87711
220.94        61.26174
221.40        80.24062
221.86        107.2935
222.32        122.3699
222.77        110.3082
223.23        85.31989
223.69        62.99623
224.15        51.65813
224.61        48.74099
225.06        49.58012
225.52        51.43562
225.98        51.46106
226.44        49.43805
226.90        46.63511
227.36        43.79295
227.81        42.10498
228.27        41.98906
228.73        42.51417
229.19        43.58998
229.65        45.30874
230.10        47.45717
230.56        50.07484
231.02        52.08915
231.48        51.76237
231.93        49.08418
232.39        45.20344
232.85        41.61958
233.31        40.30327
233.77        41.41438
234.22        44.23883
234.68        47.82795
235.14        50.78043
235.60        52.61568
236.05        53.82291
236.51        54.43451
236.97        54.56065
237.43        54.34937
237.88        53.64446
238.34        52.97971
238.80        53.65912
239.26        56.22385
239.71        61.29009
240.17        68.22607
240.63        74.64469
241.08        78.84513
241.54        80.15809
242.00        80.48728
242.46        84.65332
242.91        96.41736
243.37        117.7025
243.83        150.1324
244.28        181.8573
244.74         191.548
245.20        175.9502
245.66        151.0374
246.11        133.2164
246.57        124.2281
247.03        119.7927
247.48        114.9649
247.94        104.0082
248.40        90.23855
248.85        78.28548
249.31        70.63076
249.77        67.54675
250.22        67.93597
250.68        70.97974
251.14        76.00964
251.59         79.9691
252.05        80.88203
252.51        80.27377
252.96        78.10907
253.42         75.0416
253.88         71.6293
254.33        67.60744
254.79        65.67264
255.25        67.89079
255.70        73.59043
256.16        81.70625
256.62        88.35298
257.07        87.83742
257.53        81.97032
257.99          74.466
258.44        68.20877
258.90        65.72771
259.35         65.7856
259.81        67.37977
260.27        68.94972
260.72        68.72176
261.18          66.938
261.63        64.16939
262.09        61.70663
262.55        60.33088
263.00        59.87192
263.46        60.03534
263.91        59.96677
264.37         58.9475
264.83        56.96416
265.28        54.43021
265.74        52.13456
266.19        50.71643
266.65        50.30482
267.11        50.50616
267.56        50.92259
268.02        50.94249
268.47        50.37878
268.93        49.47136
269.38        48.33799
269.84        47.21371
270.30        46.17838
270.75        45.14072
271.21        44.20144
271.66        43.46882
272.12        42.94352
272.57        42.56659
273.03        42.20152
273.48        41.59584
273.94        40.75673
274.39        39.75058
274.85        38.73246
275.31        37.77108
275.76        36.88659
276.22        36.09056
276.67        35.40176
277.13        34.95194
277.58        34.66883
278.04        34.51477
278.49        34.30202
278.95        33.87219
279.40        33.15658
279.86        32.32234
280.31        31.39697
280.77         30.5312
281.22        29.74556
281.68        29.06202
282.13        28.53461
282.59        28.32571
283.04        28.38946
283.50        28.68661
283.95        29.02183
284.41        29.08757
284.86        28.82177
285.32        28.36025
285.77        27.86032
286.22        27.61499
286.68        27.67881
287.13        27.90733
287.59        28.22736
288.04        28.48196
288.50        28.63251
288.95        28.69893
289.41        28.67513
289.86        28.47626
290.32        28.15968
290.77         27.7559
291.22         27.3965
291.68        27.26456
292.13        27.39853
292.59        27.77663
293.04         28.3517
293.50        29.05448
293.95         29.8422
294.40        30.74089
294.86        31.72824
295.31        32.75719
295.77        33.82823
296.22        34.92646
296.68        36.09634
297.13        37.40465
297.58        38.86329
298.04        40.43832
298.49        42.07484
298.95        43.70358
299.40        45.28522
299.85        46.84959
300.31        48.39225
300.76        49.88673
301.21        51.35503
301.67        52.82439
302.12         54.3339
302.58          56.028
303.03        57.87402
303.48        59.84438
303.94        61.86493
304.39        63.75987
304.84        65.51921
305.30        67.20293
305.75        68.82156
306.20        70.48214
306.66        72.21957
307.11        73.95992
307.57        75.68902
308.02        77.28502
308.47        78.75159
308.93        80.13197
309.38        81.45666
309.83        82.88174
310.29        84.43562
310.74        86.05981
311.19        87.63473
311.65        88.93855
312.10        89.89604
312.55        90.56806
313.00        91.10989
313.46        91.77268
313.91         92.6001
314.36         93.5511
314.82        94.49958
315.27        95.25538
315.72        95.74989
316.18        96.07156
316.63        96.30679
317.08        96.63654
317.53        97.10974
317.99        97.65894
318.44        98.21924
318.89        98.65651
319.35         98.9314
319.80        99.09731
320.25        99.21235
320.70        99.36912
321.16        99.59664
321.61        99.90459
322.06        100.2528
322.51        100.5842
322.97        100.8678
323.42         101.124
323.87        101.4166
324.32         101.873
324.78        102.4703
325.23        103.2285
325.68        103.9259
326.13        104.2159
326.59        104.0269
327.04         103.497
327.49        102.9011
327.94        102.7071
328.39        103.0328
328.85        103.7125
329.30        104.6233
329.75        105.2887
330.20        105.5489
330.66        105.5113
331.11        105.3815
331.56         105.417
332.01        105.7085
332.46        106.1469
332.92        106.5941
333.37        106.9889
333.82        107.2359
334.27        107.4204
334.72        107.5802
335.17         107.752
335.63        107.9627
336.08        108.2601
336.53        108.6985
336.98        109.4159
337.43        110.4136
337.88         111.602
338.34        112.8378
338.79        113.9987
339.24        114.9442
339.69        115.7051
340.14        116.1765
340.59        116.2185
341.05        115.8979
341.50        115.2911
341.95        114.7244
342.40        114.6922
342.85        115.3003
343.30        116.4048
343.75        117.7403
344.20         118.841
344.66        119.5457
345.11        119.9709
345.56        120.1865
346.01        120.3221
346.46        120.4577
346.91        120.5604
347.36        120.6859
347.81        120.9473
348.26        121.3484
348.72        121.8407
349.17        122.3799
349.62        122.9184
350.07        123.4099
350.52        123.8797
350.97        124.1469
351.42        123.9341
351.87        123.2427
352.32        122.1857
352.77        121.1583
353.22        120.7374
353.67        121.0264
354.13        121.8612
354.58         122.855
355.03        123.3045
355.48        123.0173
355.93        122.1877
356.38        121.2144
356.83         120.707
357.28        120.7835
357.73        121.2201
358.18        121.6446
358.63        121.4719
359.08        120.5699
359.53        119.1696
359.98        117.6085
360.43        116.3611
360.88          115.55
361.33        115.0333
361.78        114.6235
362.23        114.0293
362.68        113.1851
363.13        112.2131
363.58        111.2515
364.03        110.4931
364.48        109.9686
364.93        109.5737
365.38        109.2097
365.83        108.7386
366.28        108.1175
366.73        107.4083
367.18         106.618
367.63        105.7491
368.08        104.8278
368.53        103.8554
368.98        102.9295
369.43        102.2055
369.88        101.7063
370.33        101.3911
370.78        101.1242
371.23        100.6757
371.68        99.98685
372.13        99.11986
372.58        98.20306
373.03        97.44495
373.48        96.89387
373.93        96.47549
374.38        96.08648
374.83        95.57037
375.28        94.88706
375.72        94.07719
376.17        93.26424
376.62        92.51399
377.07        91.86585
377.52        91.31678
377.97        90.83751
378.42        90.39715
378.87        89.98665
379.32        89.58621
379.77        89.27859
380.22        89.18098
380.67        89.27708
381.11        89.54938
381.56        89.69598
382.01        89.32169
382.46        88.39168
382.91        87.09726
383.36        85.82151
383.81        85.08611
384.26        84.97141
384.71        85.30138
385.15        85.82053
385.60        86.07597
386.05        85.92406
386.50        85.49203
386.95        84.89246
387.40        84.30563
387.85         83.8072
388.29        83.29568
388.74        82.86453
389.19        82.43349
389.64        81.99413
390.09        81.57234
390.54        81.20127
390.98        80.90691
391.43         80.7257
391.88        80.61286
392.33        80.52251
392.78        80.34524
393.23        80.05623
393.67        79.78654
394.12        79.59645
394.57        79.11091
395.02        78.48388
395.47         78.3983
395.91        78.76244
396.36        78.76373
396.81        78.36707
397.26        78.02145
397.71        77.77563
398.15        77.50238
398.60        77.30854
399.05        77.09624
399.50        76.87393
399.95         76.8464
400.39         76.9589
400.84        76.68314
401.29        76.09521
401.74        75.93287
402.18        76.11202
402.63        75.70493
403.08        74.87194
403.53         74.5415
403.97        74.75039
404.42        75.02282
404.87        75.20973
405.32        75.20694
405.76        74.94959
406.21        74.65083
406.66        74.35159
407.11         73.8565
407.55        73.38499
408.00         73.4494
408.45        73.98145
408.90        74.49216
409.34        74.69432
409.79        74.25506
410.24         73.4052
410.68        72.95177
411.13        72.98121
411.58        73.02013
412.03        72.96272
412.47        72.87443
412.92        72.70981
413.37        72.48971
413.81        72.29233
414.26        72.30302
414.71        72.51685
415.15        72.90069
415.60        73.32092
416.05         73.6243
416.49        73.75414
416.94        73.74366
417.39        73.64819
417.83        73.54076
418.28        73.46146
418.73        73.39098
419.17        73.34555
419.62        73.35553
420.07        73.40309
420.51        73.45227
420.96        73.50875
421.41        73.46126
421.85        73.26656
422.30        73.19419
422.74         73.1313
423.19         72.6619
423.64        71.93816
424.08        71.81867
424.53        72.27941
424.98         72.5686
425.42        72.63384
425.87         72.9432
426.31        73.39272
426.76        73.42005
427.21        73.08201
427.65        72.82406
428.10        72.68273
428.54        72.63132
428.99        72.73167
429.44        72.53252
429.88        72.28983
430.33        73.23436
430.77        74.78343
431.22        75.30492
431.66        74.66158
432.11         73.4593
432.56        72.27329
433.00        72.02656
433.45        72.89753
433.89        74.21884
434.34        75.07711
434.78        75.59583
435.23        74.80509
435.67        72.43882
436.12        72.42068
436.57        72.68433
437.01        73.97721
437.46        74.37447
437.90        73.77618
438.35        73.28912
438.79        73.12444
439.24         73.2307
439.68        73.52857
440.13        73.98331
440.57        74.49952
441.02        74.39143
441.46        73.82441
441.91          74.506
442.35        75.91986
442.80        75.38466
443.24        73.91328
443.69        73.76118
444.13        75.00799
444.58        75.43678
445.02        74.98122
445.47        74.85005
445.91        75.13222
446.36        75.38733
446.80        75.57856
447.24        75.97053
447.69        76.49543
448.13        76.26468
448.58        76.34943
449.02        76.22269
449.47        76.21869
449.91        76.09694
450.36        75.90559
450.80        75.75594
451.25        75.68745
451.69        75.65139
452.13        75.66559
452.58        75.74265
453.02        75.83943
453.47        75.90984
453.91        75.92858
454.36        75.84638
454.80        75.69003
455.24        75.59653
455.69        75.51495
456.13        75.25275
456.58        74.90488
457.02        74.37346
457.46        73.90041
457.91        74.17561
458.35        74.86832
458.79         74.8754
459.24        74.18593
459.68        73.26247
460.13        72.43465
460.57        72.27083
461.01        72.36771
461.46        72.79745
461.90        73.24342
462.34         74.1441
462.79        73.74046
463.23        73.47816
463.68        74.18121
464.12        74.16283
464.56         73.7432
465.01        72.80024
465.45        71.67149
465.89        71.44193
466.34        71.94112
466.78        72.17175
467.22        72.03997
467.67        71.54074
468.11        71.32147
468.55        71.40889
468.99        71.82299
469.44        71.80885
469.88        71.34281
470.32        70.90247
470.77         70.6095
471.21        70.43561
471.65         70.4026
472.10        70.52168
472.54        70.71135
472.98        70.79565
473.42        70.71561
473.87        70.69466
474.31        70.67059
474.75        70.21909
475.20         69.5758
475.64        69.63342
476.08        70.28062
476.52        70.40249
476.97           69.91
477.41        69.64666
477.85        69.80462
478.29        68.96915
478.74        70.20408
479.18        70.18459
479.62        69.65021
480.06        69.45946
480.50        69.55358
480.95        69.70002
481.39        69.86533
481.83        69.26788
482.27         69.6607
482.72        69.56962
483.16        69.59069
483.60        69.53495
484.04        69.55249
484.48        69.87396
484.93         70.3046
485.37        69.72368
485.81         69.0542
486.25        68.78044
486.69        70.87507
487.14         71.7673
487.58        69.87204
488.02         69.9621
488.46        68.38809
488.90        68.64878
489.34         70.0162
489.79        70.41304
490.23        69.57577
490.67        68.87121
491.11        68.50549
491.55        68.42039
491.99        68.55437
492.43        68.46513
492.88        68.15592
493.32        68.08508
493.76          68.257
494.20        68.38628
494.64        68.43994
495.08        68.51017
495.52        68.58894
495.96        68.61342
496.41        68.58033
496.85         68.6264
497.29        68.61746
497.73        68.55864
498.17        67.70898
498.61        67.70139
499.05        68.19719
499.49         68.4754
499.93        68.21738
500.37         68.0779
500.82        68.04463
501.26        68.03628
501.70        68.07265
502.14        68.19224
502.58         68.3662
503.02        68.50966
503.46        68.60038
503.90        68.67358
504.34        68.70125
504.78        68.62448
505.22        68.43864
505.66        68.18166
506.10        67.93877
506.54        67.74271
506.98        67.58951
507.42        67.75572
507.86        67.86201
508.30         67.5879
508.74        67.78132
509.18        67.67247
509.62        67.56766
510.06        67.48213
510.50        67.43763
510.94        67.40523
511.38        67.38169
511.82        67.39053
512.26        67.43052
512.70        67.50221
513.14        67.58617
513.58        67.64796
514.02        67.67834
514.46        67.67939
514.90        67.67647
515.34        67.71334
515.78        67.79446
516.22        67.90244
516.66        67.99308
517.10        67.99686
517.54        67.90076
517.98        67.73202
518.42        67.54009
518.86        67.39519
519.30        67.31845
519.74        67.31331
520.18         67.3512
520.62        67.32708
521.06        67.25647
521.50        67.28902
521.93        67.40631
522.37        67.44054
522.81        67.38961
523.25        67.32732
523.69        67.29633
524.13         67.3347
524.57        67.44582
525.01        67.60723
525.45        67.75517
525.89         67.7858
526.32        67.67252
526.76        67.47498
527.20        67.23959
527.64        67.04662
528.08        66.92566
528.52        66.85003
528.96        66.83332
529.40        66.89566
529.83        67.02316
530.27        67.21528
530.71         67.3952
531.15        67.44609
531.59        67.34662
532.03        67.12606
532.46        66.86047
532.90        66.72072
533.34        66.73273
533.78        66.81345
534.22        66.89474
534.66        66.95261
535.09        66.91466
535.53        66.66409
535.97        66.28835
536.41         66.0951
536.85        66.12383
537.28        66.22414
537.72        66.35792
538.16        66.51628
538.60        66.66871
539.04        66.81453
539.47        66.91662
539.91        66.96279
540.35        66.93639
540.79        66.84258
541.22        66.71426
541.66        66.62914
542.10        66.60413
542.54        66.63113
542.97        66.66568
543.41        66.68079
543.85         66.6579
544.29        66.56854
544.72        66.45442
545.16        66.50967
545.60        66.67735
546.04        66.74729
546.47        66.71282
546.91        66.65033
547.35        66.62468
547.79        66.77772
548.22        67.03495
548.66        67.14523
549.10        67.12352
549.53        66.94702
549.97        66.70389
550.41        66.46428
550.84        66.33314
551.28        66.40042
551.72        66.56817
552.15        66.72055
552.59        66.89949
553.03        66.37418
553.46        66.77854
553.90        66.72176
554.34         66.6786
554.77         66.6133
555.21        66.57181
555.65        66.62544
556.08        66.71867
556.52        66.74055
556.96        66.66108
557.39        66.57403
557.83        66.50621
558.27        66.35874
558.70        66.16652
559.14        66.13676
559.57        66.22523
560.01        66.24355
560.45        66.22483
560.88        66.33551
561.32        66.56846
561.75        66.85564
562.19        67.08458
562.63        66.84102
563.06        66.28172
563.50        66.11669
563.93        66.30817
564.37        66.51691
564.80        66.66619
565.24        66.52882
565.68        66.01583
566.11        66.66012
566.55         66.0878
566.98        65.93794
567.42        65.68227
567.85        65.95832
568.29        66.64208
568.72        66.99108
569.16        67.09925
569.60        67.15199
570.03        67.32513
570.47        67.59428
570.90        68.12218
571.34        66.99902
571.77        67.49487
572.21        68.21204
572.64        67.56508
573.08        68.00653
573.51        67.11736
573.95        67.04292
574.38        67.44194
574.82        67.72063
