SpectraSmart Spectrum 2.9.0.0
--------- Device Information -----------
Spectrum Name :  反射率_0
Saving Time :  2024/04/27 00:06:13
Spectro-Module Model Name : SE2030-DUVN
Spectro-Module Serial Number : OS361AC55029948
Wavelength Start : 200
Wavelength End : 1025
Wavelength Unit : Wavelength(nm)
Spectrum Unit : Reflectance(%)
-----------Spectrum Setting ------------
Integration Time : 20ms
Average : 10
Boxcar : 0
Background removal :  enabled
linearity correction :  enabled
SC :  disabled
Intensity correction :  disabled
DWT denoise :  enabled
savitzky-golay :  disabled
FFT :  disabled
Running average :  disabled
Kalman :  disabled
High pass :  disabled
---------------BEGIN--------------------
Wavelength(nm)             Reflectance(%)
200.29               0
200.75        42.69443
201.21        39.01373
201.67        36.61571
202.13        35.78055
202.58        36.25537
203.04        38.52517
203.50        42.59774
203.96        47.15076
204.42        50.82021
204.88        53.01731
205.34        53.59151
205.80        53.38472
206.26        52.76844
206.72        51.57364
207.18        49.71413
207.64        46.68714
208.10        42.16453
208.55        35.75158
209.01        27.87288
209.47        25.00344
209.93         29.9098
210.39        37.84021
210.85        44.80455
211.31        50.22654
211.77        56.05304
212.23        66.09184
212.69        89.26517
213.14        130.7463
213.60        133.2671
214.06        106.7353
214.52         88.1007
214.98         80.5988
215.44        78.52827
215.90         78.1743
216.36        78.43992
216.81        77.85983
217.27        75.98289
217.73        73.74311
218.19         69.8423
218.65        62.84452
219.11        56.30587
219.57        52.33922
220.02        51.68856
220.48        55.18533
220.94        62.78386
221.40        75.80795
221.86        94.25262
222.32        107.0212
222.77        103.4694
223.23        90.93401
223.69        77.06738
224.15        66.14565
224.61        58.13997
225.06        51.56173
225.52         47.1323
225.98        45.37715
226.44        45.77496
226.90        47.83937
227.36        50.06048
227.81        49.88969
228.27        47.18946
228.73        43.05775
229.19        39.18143
229.65        37.41632
230.10        37.83142
230.56        39.69806
231.02        42.02699
231.48        43.25483
231.93         42.9942
232.39        42.10671
232.85        41.18171
233.31        41.02829
233.77        41.76374
234.22         43.0368
234.68        44.63552
235.14        46.42521
235.60        48.30404
236.05        50.45547
236.51        52.50849
236.97        53.62395
237.43        53.54067
237.88        52.43206
238.34         51.0953
238.80        51.24113
239.26        53.58534
239.71        58.52006
240.17          65.556
240.63        72.67434
241.08        78.31492
241.54        81.93491
242.00        84.77891
242.46        90.42186
242.91        102.0273
243.37        120.6889
243.83        147.9447
244.28        175.2084
244.74        184.9208
245.20        173.6976
245.66        153.0532
246.11        134.8365
246.57        121.0323
247.03         109.076
247.48        97.15031
247.94        85.18037
248.40        75.96624
248.85         70.1452
249.31        67.78307
249.77        68.09367
250.22         70.5042
250.68        75.17306
251.14        81.55921
251.59        86.41087
252.05         87.4525
252.51         85.8511
252.96         82.6966
253.42        79.91035
253.88        77.78133
254.33        75.57501
254.79        74.80613
255.25        76.23498
255.70        79.44539
256.16        84.12794
256.62         87.9413
257.07         87.4491
257.53        83.88885
257.99        79.23221
258.44        75.23856
258.90        73.84912
259.35        74.02306
259.81        75.29533
260.27        76.28447
260.72        75.43291
261.18        73.15292
261.63        69.93421
262.09        67.23817
262.55        65.99798
263.00        65.96541
263.46        66.75626
263.91        67.26597
264.37        66.48643
264.83        64.36869
265.28        61.43498
265.74        58.67111
266.19        56.92886
266.65        56.37444
267.11        56.53633
267.56        56.88964
268.02        56.62888
268.47         55.5525
268.93        54.01268
269.38        52.28208
269.84        50.82411
270.30        49.75453
270.75          48.873
271.21        48.18505
271.66        47.65309
272.12        47.21824
272.57        46.86573
273.03        46.39951
273.48         45.4787
273.94        44.14178
274.39        42.49808
274.85        40.89175
275.31        39.64655
275.76        38.80178
276.22        38.28153
276.67        37.91924
277.13        37.57555
277.58         37.1377
278.04        36.68413
278.49        36.15834
278.95         35.6032
279.40        34.98157
279.86        34.35583
280.31        33.69802
280.77        33.09714
281.22        32.52588
281.68        32.02985
282.13        31.59208
282.59        31.27787
283.04        31.05057
283.50        30.92315
283.95        30.82579
284.41        30.66496
284.86        30.42745
285.32        30.17334
285.77        29.96432
286.22        29.95899
286.68        30.16618
287.13        30.47409
287.59        30.80771
288.04         31.0028
288.50        31.03866
288.95        30.94358
289.41        30.75371
289.86        30.44567
290.32          30.099
290.77        29.73405
291.22        29.47941
291.68         29.5055
292.13        29.84038
292.59        30.46559
293.04         31.3112
293.50        32.27198
293.95        33.29281
294.40        34.39954
294.86        35.58786
295.31        36.84584
295.77        38.17687
296.22        39.54513
296.68        40.97546
297.13        42.50045
297.58        44.13192
298.04        45.86448
298.49        47.64613
298.95        49.41349
299.40        51.13359
299.85        52.82446
300.31        54.53482
300.76        56.31583
301.21        58.18674
301.67        60.14534
302.12        62.10549
302.58        64.03069
303.03        65.86382
303.48        67.65535
303.94        69.48071
304.39        71.37698
304.84        73.38374
305.30        75.48862
305.75        77.59508
306.20         79.6558
306.66        81.65794
307.11        83.56327
307.57         85.4046
308.02        87.11602
308.47          88.721
308.93        90.24149
309.38        91.67486
309.83        93.14555
310.29        94.68409
310.74        96.25619
311.19        97.78838
311.65        99.12401
312.10        100.1994
312.55        101.0497
313.00        101.7921
313.46        102.6231
313.91        103.5649
314.36        104.5913
314.82        105.5815
315.27        106.3599
315.72        106.8627
316.18        107.1757
316.63        107.3881
317.08        107.6917
317.53        108.1428
317.99        108.6799
318.44        109.2404
318.89        109.6883
319.35        109.9812
319.80        110.1665
320.25        110.3125
320.70        110.5275
321.16        110.8409
321.61        111.2685
322.06        111.7238
322.51        112.0766
322.97        112.2831
323.42        112.3776
323.87        112.5208
324.32        113.0004
324.78        113.8202
325.23        114.9693
325.68        116.0681
326.13        116.4976
326.59        116.1199
327.04        115.1542
327.49         114.073
327.94        113.6567
328.39        114.0972
328.85        115.1403
329.30        116.4949
329.75        117.3508
330.20        117.4483
330.66        116.9996
331.11        116.3928
331.56        116.1657
332.01        116.4882
332.46        117.1563
332.92        117.9116
333.37         118.505
333.82        118.7663
334.27        118.8544
334.72        118.8531
335.17        118.8677
335.63        118.9603
336.08        119.1544
336.53         119.535
336.98        120.3035
337.43         121.464
337.88        122.9116
338.34        124.4238
338.79        125.7478
339.24         126.696
339.69        127.3262
340.14        127.5911
340.59        127.4557
341.05         127.023
341.50        126.3409
341.95        125.7118
342.40        125.5879
342.85        126.0691
343.30        127.0415
343.75         128.254
344.20        129.2598
344.66        129.9014
345.11        130.2697
345.56        130.4459
346.01        130.5841
346.46        130.7511
346.91        130.9009
347.36        131.0132
347.81         131.083
348.26        131.1081
348.72        131.0971
349.17        131.1157
349.62        131.2928
350.07        131.6314
350.52        132.1065
350.97        132.4836
351.42        132.3887
351.87        131.7813
352.32        130.7991
352.77        129.8154
353.22        129.3764
353.67        129.5788
354.13        130.2398
354.58        131.0223
355.03        131.3184
355.48        130.9526
355.93         130.099
356.38        129.0699
356.83        128.3331
357.28        127.9921
357.73        127.8869
358.18         127.764
358.63        127.2334
359.08         126.219
359.53        124.8862
359.98        123.4863
360.43        122.3648
360.88        121.5876
361.33        121.0282
361.78        120.5073
362.23          119.75
362.68        118.7032
363.13        117.4955
363.58        116.2426
364.03        115.1057
364.48        114.1316
364.93         113.243
365.38        112.4592
365.83        111.8248
366.28        111.3231
366.73        110.9492
367.18        110.5461
367.63        109.8575
368.08        108.8441
368.53        107.5802
368.98        106.2778
369.43        105.2814
369.88        104.6739
370.33        104.3589
370.78        104.1462
371.23        103.7193
371.68        102.9857
372.13        102.0331
372.58         101.021
373.03        100.1986
373.48        99.62084
373.93         99.1969
374.38        98.76825
374.83        98.09798
375.28         97.1437
375.72          95.986
376.17        94.84473
376.62        93.92233
377.07        93.28333
377.52        92.87946
377.97        92.59425
378.42        92.25592
378.87        91.81015
379.32        91.26903
379.77        90.77602
380.22        90.53797
380.67        90.55975
381.11        90.80289
381.56         90.9082
382.01        90.38953
382.46        89.21356
382.91        87.62826
383.36         86.1142
383.81        85.32379
384.26        85.34652
384.71        85.94044
385.15        86.76833
385.60        87.23912
386.05        87.15681
386.50        86.69554
386.95        85.96213
387.40         85.1346
387.85         84.3251
388.29        83.45044
388.74        82.71212
389.19        82.17455
389.64        81.84368
390.09        81.70708
390.54        81.67509
390.98        81.55959
391.43         81.3392
391.88          81.035
392.33        80.72098
392.78        80.42435
393.23        80.14529
393.67        80.06876
394.12        80.14967
394.57        79.61169
395.02        78.70284
395.47        78.72372
395.91         79.5265
396.36        79.67461
396.81        79.10139
397.26         78.6111
397.71        78.29255
398.15        77.94128
398.60        77.68033
399.05        77.40649
399.50        77.13542
399.95        77.12212
400.39        77.27989
400.84        76.98537
401.29        76.30429
401.74        76.00034
402.18        76.02357
402.63        75.54184
403.08        74.70683
403.53        74.32034
403.97        74.42392
404.42        74.63652
404.87        74.80135
405.32        74.80228
405.76        74.58384
406.21        74.22681
406.66        73.82207
407.11        73.58159
407.55        73.58548
408.00          73.562
408.45        73.52007
408.90        73.88488
409.34        74.40569
409.79        74.11378
410.24        73.21346
410.68         72.8026
411.13        72.95633
411.58        73.08006
412.03        73.04408
412.47        72.91396
412.92        72.64115
413.37        72.25813
413.81        71.88077
414.26        71.73907
414.71        71.84061
415.15        72.15072
415.60        72.52051
416.05        72.76482
416.49        72.82167
416.94        72.73541
417.39        72.58791
417.83        72.49077
418.28        72.48692
418.73        72.54029
419.17        72.62215
419.62        72.69339
420.07         72.7227
420.51        72.69543
420.96        72.66245
421.41        72.59406
421.85        72.46068
422.30        72.47359
422.74          72.493
423.19         72.1024
423.64        71.40571
424.08        71.18569
424.53        71.47372
424.98         71.4825
425.42         71.5919
425.87        71.87248
426.31        72.31754
426.76         72.3457
427.21        72.03083
427.65         71.8447
428.10        71.77954
428.54        71.97584
428.99        71.93043
429.44        71.79495
429.88        71.61912
430.33        72.44651
430.77        73.77354
431.22        74.19065
431.66        73.62113
432.11        72.69952
432.56        71.87665
433.00        71.81348
433.45        72.62474
433.89        73.67452
434.34        74.10968
434.78         74.6958
435.23        73.29789
435.67        71.14526
436.12        72.53562
436.57        72.70267
437.01        72.85926
437.46         72.9084
437.90        72.88074
438.35        72.48001
438.79        72.45368
439.24        72.36404
439.68        72.38329
440.13        72.59005
440.57         72.9884
441.02        73.02233
441.46        72.75742
441.91        73.51638
442.35        74.75272
442.80        74.31689
443.24        72.61482
443.69        72.52754
444.13        73.91099
444.58        74.37235
445.02        73.83743
445.47        73.65974
445.91        73.92551
446.36        74.15865
446.80        74.33792
447.24        74.62782
447.69        74.95253
448.13        75.02404
448.58        74.95473
449.02         74.9297
449.47        74.98757
449.91        74.92908
450.36        74.79164
450.80        74.67989
451.25        74.65353
451.69        74.67948
452.13        74.77701
452.58        74.95224
453.02        75.14592
453.47        75.26037
453.91        75.25382
454.36        75.15144
454.80        74.97227
455.24        74.68694
455.69        74.31839
456.13        74.03875
456.58        73.88267
457.02        73.30229
457.46        72.56596
457.91         72.8046
458.35         73.6006
458.79        73.66148
459.24        72.94994
459.68        72.10297
460.13        71.42269
460.57        71.17976
461.01          71.528
461.46        71.69655
461.90        72.12641
462.34        73.24871
462.79        72.72645
463.23        72.88937
463.68        72.93992
464.12        72.66904
464.56         72.0808
465.01        71.41202
465.45         70.7936
465.89        70.51131
466.34        70.50923
466.78        70.62336
467.22        70.86018
467.67        70.38475
468.11           70.72
468.55        70.77007
468.99        70.90915
469.44        70.84145
469.88        70.57332
470.32         70.2377
470.77         69.9192
471.21        69.73609
471.65        69.70803
472.10        69.80668
472.54        69.95245
472.98        69.98168
473.42        69.84285
473.87        69.74959
474.31        69.65939
474.75         69.2114
475.20        68.62318
475.64        68.69147
476.08        69.29779
476.52        69.42622
476.97        68.97509
477.41        68.74487
477.85        68.83968
478.29        68.26162
478.74        68.94189
479.18        69.54973
479.62         68.9531
480.06         68.9097
480.50         68.8917
480.95        68.86333
481.39        68.86284
481.83        68.22836
482.27        68.41083
482.72        68.57258
483.16        68.68373
483.60        68.46096
484.04        68.71412
484.48        68.85825
484.93         69.0726
485.37        68.66455
485.81        68.27179
486.25        67.94937
486.69        69.94933
487.14        70.09187
487.58        68.12299
488.02        68.71577
488.46        67.89755
488.90         67.5154
489.34        68.85694
489.79        69.69834
490.23        68.71807
490.67        68.07428
491.11        67.53171
491.55        67.54959
491.99        67.99378
492.43        68.05222
492.88        67.70831
493.32        67.59875
493.76        67.74458
494.20        67.81245
494.64        67.78166
495.08        67.74351
495.52        67.71046
495.96        67.69447
496.41        67.68667
496.85        67.72055
497.29        67.66979
497.73        67.64129
498.17        66.87075
498.61        66.86291
499.05        67.29994
499.49        67.47596
499.93        67.14273
500.37        67.22255
500.82        67.59981
501.26        67.63846
501.70        67.39074
502.14        67.45073
502.58        67.78517
503.02        67.91694
503.46        67.82285
503.90        67.75394
504.34        67.71597
504.78        67.61037
505.22        67.44518
505.66        67.25612
506.10        67.08509
506.54         66.9604
506.98        66.88777
507.42        66.91961
507.86        67.04166
508.30        66.88999
508.74        66.98876
509.18        66.91291
509.62        66.84746
510.06        66.81908
510.50        66.84184
510.94        66.90073
511.38        66.96045
511.82        66.98116
512.26        66.95318
512.70        66.88728
513.14        66.83082
513.58        66.85929
514.02        66.98306
514.46        67.17346
514.90        67.35892
515.34        67.42652
515.78        67.35049
516.22          67.166
516.66        66.94243
517.10        66.79132
517.54        66.74446
517.98        66.77261
518.42        66.82926
518.86        66.83258
519.30        66.76371
519.74        66.67081
520.18        66.59197
520.62         66.5424
521.06        66.55589
521.50        66.70043
521.93        66.92879
522.37        67.06674
522.81         67.0926
523.25        67.07427
523.69        67.05688
524.13        67.06937
524.57        67.11497
525.01        67.20912
525.45        67.31496
525.89        67.16451
526.32        67.07541
526.76        66.83581
527.20         66.5787
527.64        66.35041
528.08        66.18057
528.52        66.05413
528.96        65.99479
529.40        66.04551
529.83        66.19675
530.27        66.43571
530.71        66.68557
531.15        66.83105
531.59        66.84107
532.03        66.73679
532.46         66.5666
532.90        66.45983
533.34        66.43704
533.78        66.43165
534.22        66.40348
534.66        66.37232
535.09        66.28006
535.53         65.9996
535.97        65.61517
536.41        65.42476
536.85        65.46236
537.28        65.58469
537.72        65.73732
538.16        65.88307
538.60         65.9884
539.04        66.05972
539.47        66.09088
539.91        66.11699
540.35        66.13177
540.79        66.12946
541.22        66.10665
541.66        66.08176
542.10        66.05506
542.54        66.03303
542.97        66.01521
543.41        66.02041
543.85        66.02559
544.29         66.0655
544.72        66.13158
545.16        66.11053
545.60        65.95692
546.04        66.23135
546.47        66.08833
546.91         66.0333
547.35        65.88896
547.79        66.02789
548.22        66.35755
548.66        66.44182
549.10        66.33643
549.53        66.22566
549.97        66.16944
550.41        66.03416
550.84        65.91185
551.28        65.96509
551.72        66.10884
552.15        66.28704
552.59        66.54425
553.03        65.88065
553.46        66.30892
553.90        66.17539
554.34        66.10873
554.77         66.0226
555.21        65.98804
555.65        66.03439
556.08        66.27281
556.52          66.328
556.96        66.23907
557.39        66.29294
557.83        66.44873
558.27        66.27965
558.70        65.83765
559.14        65.63681
559.57        65.66717
560.01        65.56471
560.45        65.39021
560.88        65.51081
561.32        65.87531
561.75        66.14382
562.19        66.25591
562.63        66.09956
563.06        65.78786
563.50        65.81601
563.93        66.08654
564.37        66.15807
564.80        66.05154
565.24        65.93655
565.68        65.68085
566.11        66.37704
566.55        65.65075
566.98        65.42015
567.42        65.16679
567.85        65.38742
568.29        66.00057
568.72        66.36289
569.16        66.49595
569.60        66.75224
570.03        66.79076
570.47        66.95247
570.90        67.23267
571.34        66.37955
571.77        66.97652
572.21        67.16025
572.64        66.99839
573.08         67.2802
573.51        66.79874
573.95        66.67313
574.38        66.79643
574.82        67.07008
