SpectraSmart Spectrum 2.9.0.0
--------- Device Information -----------
Spectrum Name :  反射率_0
Saving Time :  2024/04/26 23:57:48
Spectro-Module Model Name : SE2030-DUVN
Spectro-Module Serial Number : OS361AC55029948
Wavelength Start : 200
Wavelength End : 1025
Wavelength Unit : Wavelength(nm)
Spectrum Unit : Reflectance(%)
-----------Spectrum Setting ------------
Integration Time : 20ms
Average : 10
Boxcar : 0
Background removal :  enabled
linearity correction :  enabled
SC :  disabled
Intensity correction :  disabled
DWT denoise :  enabled
savitzky-golay :  disabled
FFT :  disabled
Running average :  disabled
Kalman :  disabled
High pass :  disabled
---------------BEGIN--------------------
Wavelength(nm)             Reflectance(%)
200.29               0
200.75        40.31213
201.21        38.21313
201.67        36.50929
202.13        35.19172
202.58        34.03767
203.04        33.19298
203.50        32.94102
203.96        33.91265
204.42        36.31733
204.88        39.74988
205.34        43.00513
205.80        44.14771
206.26        42.82854
206.72        40.05425
207.18        36.72933
207.64        33.18077
208.10        29.13656
208.55         23.7457
209.01        17.61387
209.47        16.57479
209.93        22.25768
210.39        30.17121
210.85        36.51221
211.31        40.52133
211.77        43.56858
212.23        47.41355
212.69        55.24801
213.14         71.5447
213.60        75.13527
214.06        66.59145
214.52        59.94863
214.98        57.37405
215.44        56.78955
215.90        56.77675
216.36        56.55156
216.81        54.69971
217.27        50.89856
217.73        45.25632
218.19        37.44304
218.65        31.01227
219.11        29.87123
219.57        31.96006
220.02        35.45972
220.48        40.51118
220.94        47.84895
221.40        59.39373
221.86        74.55659
222.32        82.69115
222.77        75.68127
223.23        61.12694
223.69        47.92435
224.15        40.92818
224.61        38.70974
225.06        38.73113
225.52        39.49068
225.98        39.33606
226.44         38.1096
226.90        36.48808
227.36        34.82398
227.81        33.70062
228.27         33.3751
228.73        33.35214
229.19        33.64671
229.65        34.35116
230.10        35.38007
230.56        36.79945
231.02        37.95404
231.48        37.79975
231.93        36.28112
232.39         34.0222
232.85        32.04076
233.31        31.72059
233.77        33.10881
234.22        35.73106
234.68        38.55529
235.14        40.03799
235.60        39.74309
236.05        38.09738
236.51        35.74936
236.97        34.12317
237.43        33.90329
237.88        34.79117
238.34        36.43782
238.80        38.43814
239.26        40.73017
239.71        43.99442
240.17        48.12159
240.63        52.54167
241.08         56.7483
241.54        59.89147
242.00        62.90456
242.46        68.67118
242.91        79.78569
243.37        98.07542
243.83        124.2921
244.28        147.3892
244.74        149.8557
245.20        130.5632
245.66        105.3295
246.11        88.59275
246.57        81.17592
247.03        79.21268
247.48        78.05344
247.94        71.36893
248.40        61.17655
248.85        51.67678
249.31        45.39221
249.77        43.15765
250.22         44.1593
250.68        47.77407
251.14        53.11429
251.59        56.56868
252.05        56.21679
252.51        53.98242
252.96        50.95632
253.42        48.51774
253.88        46.95195
254.33        45.46903
254.79        45.68869
255.25        48.89609
255.70        54.61115
256.16        62.22028
256.62        68.55196
257.07        68.79283
257.53        64.40628
257.99        58.50583
258.44        53.65433
258.90        52.14535
259.35        52.91598
259.81        54.99179
260.27        56.96039
260.72        57.15907
261.18        55.76902
261.63        53.40503
262.09        51.15466
262.55        49.66348
263.00        48.84994
263.46        48.49111
263.91        48.04266
264.37        47.11167
264.83        45.67353
265.28        43.96187
265.74        42.44076
266.19        41.39444
266.65        40.90185
267.11        40.72167
267.56        40.65845
268.02        40.41874
268.47        39.90664
268.93        39.24289
269.38        38.42858
269.84        37.51432
270.30         36.5278
270.75        35.44703
271.21        34.41478
271.66        33.60095
272.12        33.03254
272.57        32.64568
273.03        32.28623
273.48        31.69406
273.94        30.86415
274.39        29.86362
274.85        28.89035
275.31        28.09659
275.76        27.49636
276.22        27.05627
276.67        26.67227
277.13        26.26856
277.58         25.7834
278.04        25.26698
278.49        24.71948
278.95        24.23577
279.40        23.78986
279.86        23.40868
280.31        23.00591
280.77        22.54312
281.22        21.99695
281.68        21.44103
282.13        20.93175
282.59        20.60285
283.04        20.44287
283.50        20.41599
283.95         20.4366
284.41        20.37561
284.86        20.20217
285.32        19.97857
285.77        19.75034
286.22         19.6268
286.68        19.62633
287.13        19.68094
287.59         19.7659
288.04         19.8116
288.50        19.81312
288.95        19.77349
289.41        19.70357
289.86        19.56775
290.32        19.39971
290.77        19.20503
291.22        19.04498
291.68          19.001
292.13        19.08477
292.59        19.29069
293.04        19.58431
293.50        19.92128
293.95        20.27964
294.40        20.67904
294.86        21.12856
295.31        21.63664
295.77        22.21006
296.22        22.82984
296.68        23.50287
297.13        24.23287
297.58        25.02267
298.04        25.87444
298.49         26.7628
298.95        27.66079
299.40        28.55214
299.85        29.44127
300.31        30.35538
300.76        31.32904
301.21         32.3721
301.67        33.49138
302.12        34.62647
302.58        35.74094
303.03        36.80536
303.48        37.85793
303.94        38.97229
304.39        40.22128
304.84        41.63099
305.30         43.1806
305.75        44.77576
306.20        46.33028
306.66        47.82995
307.11        49.28521
307.57        50.74309
308.02        52.20949
308.47        53.70781
308.93        55.22457
309.38         56.7705
309.83        58.44751
310.29        60.26858
310.74        62.20683
311.19        64.12888
311.65        65.78651
312.10        67.09972
312.55        68.11449
313.00        69.02892
313.46        70.17545
313.91        71.61044
314.36        73.25958
314.82        74.89851
315.27        76.16203
315.72        76.94289
316.18        77.37939
316.63         77.6749
317.08        78.18802
317.53        79.01606
317.99        80.04109
318.44         81.1174
318.89        81.98032
319.35        82.54407
319.80         82.8941
320.25        83.13385
320.70         83.4268
321.16         83.8218
321.61        84.29779
322.06        84.76907
322.51        85.10936
322.97        85.27934
323.42        85.33064
323.87        85.39614
324.32        85.70154
324.78        86.26207
325.23        87.07242
325.68         87.8693
326.13        88.22202
326.59        88.03337
327.04        87.45973
327.49        86.82664
327.94         86.6763
328.39        87.13999
328.85        88.03039
329.30        89.14379
329.75        89.89912
330.20        90.10062
330.66        89.88757
331.11        89.52709
331.56        89.38691
332.01         89.5919
332.46        90.01451
332.92        90.47791
333.37        90.82584
333.82        90.95016
334.27         90.9638
334.72        90.96542
335.17        91.08971
335.63        91.37968
336.08        91.82896
336.53        92.41444
336.98        93.14391
337.43        93.98526
337.88        94.90056
338.34        95.79736
338.79        96.62374
339.24        97.29057
339.69        97.80872
340.14         98.1246
340.59        98.17604
341.05        98.01849
341.50        97.69745
341.95        97.41303
342.40        97.46233
342.85        97.91015
343.30        98.66989
343.75        99.58121
344.20        100.3614
344.66         100.911
345.11        101.2969
345.56        101.5455
346.01        101.7146
346.46        101.8507
346.91        101.9385
347.36        102.0347
347.81        102.2465
348.26        102.5806
348.72        102.9946
349.17        103.4331
349.62          103.83
350.07        104.1531
350.52        104.4452
350.97        104.6017
351.42        104.4633
351.87        104.0387
352.32        103.3806
352.77        102.7767
353.22        102.6512
353.67        103.0632
354.13        103.8853
354.58        104.7668
355.03         105.078
355.48        104.6685
355.93        103.7334
356.38        102.6696
356.83         102.081
357.28        102.0908
357.73        102.4844
358.18        102.9426
358.63        102.9535
359.08        102.3808
359.53        101.4184
359.98        100.2814
360.43        99.26981
360.88        98.47362
361.33        97.79276
361.78        97.16904
362.23        96.52561
362.68          95.844
363.13        95.18365
363.58        94.54963
364.03         93.9236
364.48         93.2998
364.93        92.65917
365.38        92.03471
365.83        91.49834
366.28        91.05783
366.73        90.68888
367.18        90.31257
367.63        89.80185
368.08        89.13439
368.53         88.3579
368.98        87.55741
369.43        86.86528
369.88        86.32127
370.33        85.89007
370.78        85.52595
371.23        85.15531
371.68        84.74943
372.13        84.32265
372.58        83.89526
373.03        83.49703
373.48        83.12324
373.93        82.74723
374.38        82.32132
374.83        81.78319
375.28        81.13067
375.72        80.38404
376.17        79.65213
376.62        78.99496
377.07        78.44979
377.52        78.02409
377.97        77.69558
378.42        77.43429
378.87        77.21967
379.32        77.01514
379.77        76.87878
380.22         76.9002
380.67         77.0583
381.11        77.34088
381.56        77.46378
382.01        77.04965
382.46        76.07896
382.91        74.74738
383.36        73.44832
383.81        72.71509
384.26        72.62926
384.71        73.01125
385.15        73.60257
385.60        73.94359
386.05         73.8839
386.50        73.55598
386.95        73.05053
387.40        72.51767
387.85        72.03039
388.29        71.49682
388.74        71.04549
389.19        70.67851
389.64        70.39444
390.09        70.20026
390.54        70.04991
390.98        69.83809
391.43        69.57777
391.88        69.28203
392.33        69.01041
392.78        68.80435
393.23        68.66131
393.67        68.65388
394.12        68.75522
394.57        68.49472
395.02        67.99376
395.47        67.95612
395.91         68.3175
396.36        68.32546
396.81        67.96281
397.26        67.65542
397.71        67.44534
398.15        67.21488
398.60        67.05756
399.05        66.86554
399.50        66.66144
399.95        66.69356
400.39        66.88489
400.84        66.65971
401.29        66.08028
401.74        65.84865
402.18        65.92815
402.63        65.58294
403.08         64.9415
403.53        64.69598
403.97        64.87642
404.42        65.15588
404.87         65.3895
405.32        65.43143
405.76        65.21951
406.21        64.91408
406.66        64.60478
407.11        64.26787
407.55        64.06372
408.00        64.29283
408.45        64.83269
408.90         65.1819
409.34        65.14449
409.79        64.66962
410.24        63.97345
410.68        63.57255
411.13        63.54886
411.58         63.6277
412.03        63.70143
412.47        63.71248
412.92        63.59913
413.37         63.4105
413.81        63.22533
414.26        63.21843
414.71        63.39289
415.15        63.71667
415.60        64.06621
416.05        64.30047
416.49        64.37265
416.94        64.31593
417.39        64.20969
417.83        64.16328
418.28        64.21656
418.73        64.33896
419.17        64.49054
419.62        64.61125
420.07        64.66758
420.51        64.65037
420.96        64.62333
421.41        64.59544
421.85        64.54585
422.30        64.63362
422.74        64.70664
423.19        64.41376
423.64        63.82935
424.08        63.53522
424.53        63.59458
424.98        63.67075
425.42        63.77665
425.87        64.17895
426.31        64.71095
426.76        64.84385
427.21        64.56847
427.65        64.20792
428.10        63.92303
428.54        63.85994
428.99        64.09277
429.44        64.38963
429.88        64.72063
430.33        65.31967
430.77        65.91879
431.22        66.17403
431.66        66.02612
432.11        65.45364
432.56        64.71659
433.00        64.62695
433.45        65.38771
433.89        66.14008
434.34        66.08691
434.78        67.69287
435.23        66.31711
435.67        64.14088
436.12        65.01009
436.57        65.11852
437.01        65.63194
437.46        65.93589
437.90        66.12579
438.35        64.94663
438.79        65.56647
439.24        65.46766
439.68        65.54063
440.13        65.81419
440.57        66.26967
441.02        66.42245
441.46        66.27094
441.91        66.78766
442.35        67.60844
442.80         67.3259
443.24         66.2142
443.69        66.22078
444.13        67.22832
444.58        67.60049
445.02        67.28128
445.47        67.19475
445.91        67.40814
446.36        67.63329
446.80        67.85769
447.24        68.14437
447.69        68.43244
448.13        68.60931
448.58        68.66512
449.02        68.60043
449.47        68.47236
449.91        68.34684
450.36        68.27235
450.80        68.21519
451.25        68.18879
451.69        68.15732
452.13        68.12938
452.58        68.10844
453.02        68.10392
453.47        68.13539
453.91        68.19119
454.36        68.26362
454.80        68.29665
455.24        68.17413
455.69         67.8959
456.13        67.56088
456.58        67.28109
457.02        66.88087
457.46        66.53059
457.91        66.74325
458.35         67.2551
458.79        67.24709
459.24        66.75504
459.68        66.01782
460.13        65.27038
460.57        65.10372
461.01        65.72611
461.46        65.03831
461.90         65.9645
462.34        66.64721
462.79        66.53479
463.23        66.46453
463.68        66.49757
464.12        66.22334
464.56        65.77335
465.01        65.23119
465.45        64.68522
465.89         64.4455
466.34        64.47268
466.78        64.59913
467.22         64.7582
467.67        64.52582
468.11        64.35478
468.55        64.34161
468.99        64.55577
469.44        64.53732
469.88        64.28244
470.32        64.06123
470.77        63.91548
471.21        63.79653
471.65        63.70776
472.10         63.6656
472.54        63.65579
472.98        63.63502
473.42        63.58135
473.87        63.61608
474.31        63.64662
474.75        63.35881
475.20        62.87851
475.64        62.74348
476.08        62.96209
476.52        62.92197
476.97        62.57421
477.41        62.55696
477.85         62.9171
478.29        62.18886
478.74        62.79325
479.18        62.89283
479.62        62.89941
480.06        62.91069
480.50        62.82744
480.95         62.8235
481.39        62.92795
481.83        62.44532
482.27        62.67357
482.72         62.6984
483.16        62.90543
483.60        62.52139
484.04        62.78797
484.48        62.71338
484.93        62.55258
485.37        62.73322
485.81        61.81377
486.25        62.30588
486.69        63.71463
487.14         64.4504
487.58        62.42575
488.02        62.77561
488.46        62.13992
488.90        61.70384
489.34        62.44906
489.79        63.35379
490.23        62.96209
490.67        62.43247
491.11        61.55547
491.55        61.34719
491.99        61.72935
492.43        61.68916
492.88        61.22611
493.32        61.04705
493.76        61.19644
494.20        61.33664
494.64        61.44065
495.08        61.64973
495.52         61.8741
495.96        61.87071
496.41        61.68113
496.85        61.55732
497.29        61.44495
497.73        61.58089
498.17        61.16344
498.61        60.95868
499.05        60.79742
499.49        60.95966
499.93        61.17412
500.37         61.3968
500.82        61.51532
501.26        61.57631
501.70          61.557
502.14        61.56765
502.58        61.58425
503.02        61.38388
503.46        61.65234
503.90        61.84036
504.34         62.0534
504.78         62.0276
505.22        61.75394
505.66        61.43938
506.10          61.178
506.54         60.9395
506.98        60.74379
507.42        60.92223
507.86        60.97581
508.30        60.99009
508.74        61.11012
509.18         61.1247
509.62        61.12621
510.06        61.11221
510.50        61.09313
510.94        61.05139
511.38        60.99633
511.82        60.95787
512.26        60.94365
512.70         60.9531
513.14        60.97705
513.58        60.99725
514.02        61.00801
514.46        61.00994
514.90        61.01535
515.34        61.04506
515.78        61.09708
516.22        61.15875
516.66        61.20032
517.10        61.17529
517.54        61.07992
517.98        60.94014
518.42        60.78761
518.86         60.6726
519.30        60.61243
519.74        60.58885
520.18        60.60941
520.62        60.68266
521.06        60.80137
521.50        60.96728
521.93        61.12802
522.37        61.17784
522.81        61.10751
523.25        60.94036
523.69        60.76489
524.13        60.72392
524.57        60.83982
525.01        61.05994
525.45         61.2879
525.89        61.36653
526.32         61.2515
526.76        61.01709
527.20        60.72772
527.64        60.48806
528.08        60.33737
528.52        60.24562
528.96        60.21274
529.40        60.23844
529.83        60.30968
530.27        60.43501
530.71        60.57198
531.15        60.65559
531.59        60.67188
532.03        60.62406
532.46         60.5362
532.90        60.51238
533.34        60.56052
533.78        60.55288
534.22        60.57503
534.66        60.57235
535.09        60.52682
535.53        60.31833
535.97        59.99104
536.41        59.76636
536.85        59.67271
537.28        59.59828
537.72        59.56577
538.16        59.65562
538.60        59.85683
539.04        60.13781
539.47         60.4004
539.91        60.53277
540.35        60.49918
540.79        60.33963
541.22        60.12872
541.66        60.01105
542.10        60.01506
542.54        60.09354
542.97        60.19334
543.41        60.25767
543.85        60.25662
544.29         60.2277
544.72        60.15859
545.16        60.05745
545.60        59.92385
546.04        59.77494
546.47        59.66801
546.91        59.66173
547.35        59.77505
547.79        60.04914
548.22        60.38906
548.66        60.51604
549.10        60.44971
549.53        60.36297
549.97        60.35063
550.41        59.84136
550.84        59.84114
551.28        59.78185
551.72        59.87206
552.15        59.95262
552.59        60.22465
553.03        59.70858
553.46         60.2251
553.90        60.19385
554.34        60.13394
554.77        60.04498
555.21        59.99314
555.65        60.01463
556.08        60.08223
556.52        60.22206
556.96        60.37614
557.39        60.33706
557.83        60.30074
558.27        60.18947
558.70        59.82979
559.14        59.67108
559.57        59.63848
560.01        59.57301
560.45        59.50605
560.88        59.68636
561.32        60.04583
561.75        60.21264
562.19        60.17465
562.63        60.02936
563.06        59.86001
563.50        59.87838
563.93         60.0059
564.37        60.05804
564.80        60.03601
565.24        59.90924
565.68        59.57958
566.11        60.17702
566.55        59.55235
566.98        59.40555
567.42        59.24148
567.85        59.41653
568.29        59.87117
568.72        60.19601
569.16        60.43078
569.60        60.57252
570.03        60.69903
570.47        60.88625
570.90        61.22813
571.34        60.45984
571.77        60.83229
572.21        61.28923
572.64        60.74974
573.08        61.29053
573.51        60.49984
573.95        60.59135
574.38        61.11405
574.82        61.21969
