SpectraSmart Spectrum 2.9.0.0
--------- Device Information -----------
Spectrum Name :  反射率_0
Saving Time :  2024/04/27 00:00:07
Spectro-Module Model Name : SE2030-DUVN
Spectro-Module Serial Number : OS361AC55029948
Wavelength Start : 200
Wavelength End : 1025
Wavelength Unit : Wavelength(nm)
Spectrum Unit : Reflectance(%)
-----------Spectrum Setting ------------
Integration Time : 20ms
Average : 10
Boxcar : 0
Background removal :  enabled
linearity correction :  enabled
SC :  disabled
Intensity correction :  disabled
DWT denoise :  enabled
savitzky-golay :  disabled
FFT :  disabled
Running average :  disabled
Kalman :  disabled
High pass :  disabled
---------------BEGIN--------------------
Wavelength(nm)             Reflectance(%)
200.29               0
200.75        30.31971
201.21        34.70459
201.67        38.70839
202.13        40.27277
202.58        39.27266
203.04        36.54942
203.50         32.8951
203.96        31.00866
204.42        32.78454
204.88        37.40322
205.34        43.59836
205.80        48.74063
206.26        51.34272
206.72        51.96002
207.18         50.8223
207.64         47.8484
208.10        42.93394
208.55        35.36722
209.01        25.14555
209.47        19.37614
209.93        22.40765
210.39        29.76152
210.85        36.88091
211.31        42.66079
211.77        48.95196
212.23        59.71555
212.69        84.37252
213.14        127.5921
213.60        128.8354
214.06        100.2959
214.52        79.49794
214.98        68.70982
215.44         62.2111
215.90        56.54168
216.36        52.00998
216.81        49.64694
217.27        50.03331
217.73        54.11908
218.19         60.4405
218.65        61.13519
219.11        54.52711
219.57        46.10117
220.02        41.04667
220.48        42.03407
220.94        48.64548
221.40        61.75996
221.86        80.58234
222.32        91.85313
222.77        84.95838
223.23        69.07622
223.69        54.52871
224.15         47.0086
224.61        44.97486
225.06        45.33884
225.52        46.52388
225.98        46.85553
226.44        46.14866
226.90        45.14148
227.36        44.08488
227.81        43.29061
228.27        43.01402
228.73        42.88799
229.19        43.05714
229.65        43.80546
230.10        45.01951
230.56        46.58401
231.02        47.88158
231.48         47.9299
231.93        46.60597
232.39        44.60646
232.85         42.5314
233.31        41.19313
233.77        40.69164
234.22        40.78226
234.68        41.19336
235.14        41.63317
235.60        41.99696
236.05        42.47179
236.51        42.95682
236.97        43.20317
237.43        43.15713
237.88        42.82268
238.34        42.59571
238.80        43.45554
239.26        45.81589
239.71        50.09908
240.17        55.69327
240.63        60.56902
241.08        63.30459
241.54         63.3807
242.00         62.5529
242.46        65.06059
242.91        74.03359
243.37        91.02335
243.83        117.4514
244.28        143.6471
244.74        152.1061
245.20        140.0327
245.66        119.5614
246.11        103.1955
246.57        92.63976
247.03        84.75542
247.48        77.04811
247.94        67.70631
248.40        59.01814
248.85        52.60938
249.31        49.21237
249.77          48.539
250.22        49.91627
250.68        53.27935
251.14        57.79588
251.59        60.19075
252.05        59.01107
252.51        56.03166
252.96        52.76186
253.42        50.98409
253.88        50.69519
254.33         50.7779
254.79        52.21441
255.25        55.65692
255.70        60.68143
256.16        66.96276
256.62        71.93054
257.07        71.68984
257.53        67.68959
257.99        62.52991
258.44        58.23046
258.90        56.75087
259.35         57.1146
259.81        58.57186
260.27        60.02551
260.72        60.22138
261.18        59.28839
261.63         57.5521
262.09        55.81772
262.55        54.41601
263.00        53.29259
263.46         52.4292
263.91        51.44062
264.37        50.16091
264.83        48.60308
265.28        46.90465
265.74        45.49202
266.19        44.59688
266.65        44.27579
267.11        44.29849
267.56        44.43424
268.02        44.32303
268.47        43.85708
268.93        43.18173
269.38        42.32833
269.84        41.40813
270.30        40.46602
270.75        39.45341
271.21        38.53078
271.66         37.8916
272.12        37.55133
272.57        37.42896
273.03        37.29233
273.48        36.75185
273.94        35.79235
274.39        34.53294
274.85        33.27364
275.31        32.29385
275.76         31.6376
276.22        31.24226
276.67        30.95666
277.13        30.65042
277.58          30.234
278.04        29.76968
278.49         29.2714
278.95        28.86413
279.40        28.51332
279.86        28.23972
280.31        27.90208
280.77        27.40282
281.22        26.72153
281.68        25.98178
282.13        25.31253
282.59        24.96234
283.04        24.92734
283.50        25.13015
283.95        25.42389
284.41        25.58073
284.86        25.53081
285.32        25.37061
285.77        25.15086
286.22        25.00231
286.68        24.95955
287.13        24.94237
287.59        24.96304
288.04        25.00466
288.50        25.07121
288.95        25.14573
289.41        25.19807
289.86        25.11462
290.32        24.92867
290.77        24.67976
291.22        24.47564
291.68        24.46172
292.13        24.67081
292.59          25.086
293.04        25.67312
293.50        26.38841
293.95        27.19851
294.40        28.11947
294.86        29.13483
295.31         30.2091
295.77        31.33793
296.22        32.50322
296.68        33.73025
297.13        35.05139
297.58        36.48335
298.04         38.0257
298.49        39.64143
298.95        41.28735
299.40        42.93774
299.85        44.60078
300.31        46.31717
300.76        48.13261
301.21        50.05194
301.67        52.06114
302.12        54.05911
302.58        55.97893
303.03        57.76218
303.48        59.46347
303.94        61.16672
304.39        62.93358
304.84        64.81238
305.30        66.79431
305.75         68.7942
306.20        70.76824
306.66        72.70592
307.11        74.57577
307.57        76.41205
308.02         78.1637
308.47        79.84325
308.93        81.45367
309.38        82.97393
309.83        84.49294
310.29        86.03058
310.74        87.56385
311.19        89.01976
311.65        90.24693
312.10        91.19604
312.55        91.90979
313.00        92.53232
313.46        93.29711
313.91        94.23517
314.36        95.30759
314.82        96.37189
315.27        97.20953
315.72        97.74244
316.18        98.06361
316.63        98.26967
317.08        98.56127
317.53        99.00024
317.99        99.52336
318.44        100.0715
318.89        100.5186
319.35        100.8244
319.80        101.0315
320.25        101.2056
320.70        101.4504
321.16        101.7868
321.61        102.2192
322.06        102.6518
322.51        102.9386
322.97        103.0388
323.42        103.0052
323.87        102.9934
324.32        103.2789
324.78         103.877
325.23        104.7704
325.68        105.6632
326.13        106.0727
326.59        105.8813
327.04         105.267
327.49        104.5477
327.94        104.2602
328.39        104.5425
328.85        105.1992
329.30         106.097
329.75        106.7432
330.20        106.9741
330.66        106.9181
331.11        106.7743
331.56        106.7803
332.01        107.0273
332.46        107.4035
332.92        107.8115
333.37        108.2659
333.82        108.6764
334.27        109.0967
334.72        109.4807
335.17         109.728
335.63        109.8334
336.08        109.8919
336.53        110.0318
336.98        110.5144
337.43        111.3916
337.88        112.5498
338.34        113.8308
338.79         115.085
339.24        116.1434
339.69        117.0243
340.14          117.61
340.59        117.7378
341.05        117.4596
341.50        116.8602
341.95        116.2113
342.40        115.9282
342.85        116.1289
343.30        116.7093
343.75        117.5587
344.20        118.4638
344.66         119.312
345.11        120.1327
345.56         120.823
346.01        121.2313
346.46        121.3604
346.91        121.2646
347.36        121.0856
347.81        121.0774
348.26        121.2951
348.72        121.6401
349.17        122.0799
349.62        122.5899
350.07        123.1184
350.52           123.7
350.97         124.088
351.42        123.8885
351.87        123.0787
352.32        121.7933
352.77        120.5179
353.22        119.9698
353.67        120.2764
354.13        121.2346
354.58        122.3499
355.03        122.7421
355.48        122.1863
355.93        120.9435
356.38        119.5484
356.83        118.8085
357.28        118.8813
357.73        119.4807
358.18        120.1163
358.63          120.01
359.08        118.9794
359.53        117.3183
359.98        115.4616
360.43        114.0292
360.88        113.1738
361.33        112.6967
361.78         112.341
362.23        111.7096
362.68        110.7124
363.13        109.5207
363.58        108.3157
364.03        107.3491
364.48        106.6758
364.93        106.1716
365.38        105.7424
365.83        105.2622
366.28        104.6755
366.73        104.0293
367.18         103.299
367.63        102.4349
368.08        101.4532
368.53        100.3838
368.98        99.32327
369.43        98.42645
369.88        97.73527
370.33        97.21152
370.78        96.80116
371.23        96.41049
371.68        95.98921
372.13        95.53706
372.58         95.0419
373.03         94.4885
373.48         93.8659
373.93        93.16909
374.38        92.37527
374.83        91.46697
375.28        90.47126
375.72        89.40663
376.17        88.42078
376.62        87.61333
377.07         87.0195
377.52        86.63386
377.97        86.37185
378.42         86.1015
378.87        85.77744
379.32        85.38644
379.77        85.04621
380.22         84.9381
380.67        85.05803
381.11        85.36686
381.56        85.52126
382.01        85.05567
382.46        83.93262
382.91        82.38588
383.36        80.86786
383.81        79.98821
384.26        79.84009
384.71        80.21632
385.15        80.81544
385.60        81.10744
386.05        80.92524
386.50        80.42533
386.95        79.73662
387.40        79.06603
387.85        78.50085
388.29        77.92657
388.74        77.44864
389.19        77.02068
389.64        76.63033
390.09        76.29484
390.54        75.99728
390.98        75.68098
391.43        75.37047
391.88        75.06244
392.33        74.79213
392.78        74.51137
393.23        74.20287
393.67        74.05215
394.12         74.0934
394.57        73.41396
395.02        73.06738
395.47        72.80126
395.91        72.87756
396.36        72.74187
396.81        72.41344
397.26        72.20775
397.71         72.0748
398.15        71.87396
398.60        71.69363
399.05        71.28504
399.50        70.80447
399.95        71.01593
400.39        71.70879
400.84        71.50441
401.29        70.47727
401.74        70.00661
402.18        70.11486
402.63        69.76477
403.08        69.06255
403.53        68.74637
403.97        68.84652
404.42        69.07957
404.87        69.27345
405.32        69.22301
405.76        68.86642
406.21        68.31886
406.66        67.74805
407.11        67.40604
407.55        67.38612
408.00        67.59681
408.45        67.90379
408.90         68.0647
409.34        67.94772
409.79        67.50771
410.24        66.90816
410.68        66.49949
411.13        66.34975
411.58        66.29353
412.03        66.25938
412.47        66.19324
412.92        66.04945
413.37        65.88412
413.81        65.73759
414.26        65.72668
414.71        65.84205
415.15        66.06403
415.60        66.30908
416.05        66.51237
416.49        66.64214
416.94        66.70097
417.39        66.70486
417.83        66.66724
418.28        66.60654
418.73        66.52374
419.17          66.437
419.62        66.37824
420.07        66.34546
420.51        66.31052
420.96        66.30231
421.41        66.26599
421.85        66.16206
422.30        66.19071
422.74        66.23488
423.19        65.93137
423.64        65.39428
424.08        65.33722
424.53        65.70973
424.98         65.8806
425.42        65.81792
425.87         65.8445
426.31        65.96605
426.76        66.02467
427.21         66.0114
427.65        65.87269
428.10        65.63488
428.54        65.57897
428.99        65.76202
429.44        65.68074
429.88        65.49053
430.33        66.16858
430.77        67.28127
431.22        67.54242
431.66        66.93863
432.11        66.18922
432.56        65.61252
433.00        65.65015
433.45         66.3579
433.89        66.96395
434.34        66.81415
434.78        67.81672
435.23         66.3486
435.67        64.92657
436.12        65.03148
436.57        65.34109
437.01        66.18049
437.46        66.65143
437.90        66.45379
438.35        65.58273
438.79        65.77345
439.24        65.65599
439.68        65.72767
440.13        65.99482
440.57        66.45041
441.02        66.73266
441.46        66.79039
441.91        67.40602
442.35        68.20286
442.80        67.82189
443.24        66.58556
443.69         66.5713
444.13        67.65199
444.58        68.02513
445.02        67.63139
445.47        67.51768
445.91        67.74215
446.36        67.93058
446.80        68.06531
447.24        68.25416
447.69        68.46596
448.13         68.5823
448.58        68.62451
449.02         68.6859
449.47         68.7447
449.91        68.65379
450.36        68.43354
450.80        68.13342
451.25        67.85314
451.69        67.67619
452.13        67.64497
452.58        67.72601
453.02        67.86194
453.47        67.96943
453.91        67.99876
454.36        67.96449
454.80        67.87732
455.24        67.68063
455.69        67.38387
456.13        67.19772
456.58         67.1265
457.02        66.52167
457.46        65.69635
457.91        65.91956
458.35        66.87087
458.79        67.01929
459.24         66.3421
459.68         65.5578
460.13        64.94201
460.57        64.72065
461.01         65.0415
461.46        65.09898
461.90        65.41352
462.34        66.44228
462.79        65.48233
463.23        65.57607
463.68        65.77988
464.12        65.60454
464.56        65.03499
465.01        64.43635
465.45        63.94186
465.89        63.80413
466.34        63.91751
466.78        63.99047
467.22        64.06424
467.67        63.37882
468.11        63.75886
468.55         63.7126
468.99        63.71213
469.44        63.57546
469.88        63.31429
470.32        63.00944
470.77        62.72671
471.21         62.5719
471.65        62.55842
472.10         62.6674
472.54        62.81163
472.98        62.83216
473.42        62.68946
473.87        62.53811
474.31        62.38055
474.75        62.06529
475.20        61.72341
475.64        61.80095
476.08        62.23167
476.52        62.28792
476.97        61.87786
477.41        61.86857
477.85        62.00892
478.29         61.1995
478.74        61.50404
479.18        61.79276
479.62        61.92451
480.06        62.04731
480.50        61.90591
480.95        61.90614
481.39        62.08067
481.83         61.4706
482.27        61.50378
482.72        61.64251
483.16         61.5149
483.60        61.24652
484.04        61.55431
484.48        61.78198
484.93        61.98619
485.37        62.05457
485.81        61.14203
486.25        61.48873
486.69        63.83017
487.14        64.56712
487.58         61.9001
488.02         61.7757
488.46        60.67257
488.90        60.58553
489.34        61.70103
489.79        62.77535
490.23        61.91122
490.67        61.28725
491.11        60.62883
491.55        60.49537
491.99        60.80539
492.43        60.73801
492.88        60.30923
493.32         60.1973
493.76        60.41055
494.20        60.54707
494.64        60.57518
495.08        60.62835
495.52        60.69272
495.96        60.72551
496.41        60.72026
496.85         60.6946
497.29        60.57537
497.73        60.59348
498.17        60.01316
498.61        59.96122
499.05        60.15537
499.49        60.11138
499.93        59.69806
500.37        59.81288
500.82        60.32492
501.26        60.60015
501.70        60.57421
502.14        60.53695
502.58        60.54618
503.02        60.58515
503.46        60.66705
503.90        60.77603
504.34         60.8506
504.78        60.80526
505.22         60.6267
505.66        60.34896
506.10        60.05086
506.54        59.85408
506.98        59.78978
507.42         59.8241
507.86        59.90402
508.30        59.94084
508.74         59.9068
509.18        59.82859
509.62        59.73431
510.06        59.66885
510.50        59.64476
510.94        59.64241
511.38        59.64664
511.82        59.63633
512.26         59.6071
512.70        59.57336
513.14        59.54333
513.58        59.52673
514.02        59.52898
514.46        59.54416
514.90        59.57856
515.34        59.64422
515.78        59.73498
516.22        59.83805
516.66        59.92838
517.10        59.96717
517.54         59.9454
517.98          59.878
518.42        59.77622
518.86        59.65999
519.30         59.5437
519.74        59.42651
520.18        59.33247
520.62        59.29561
521.06        59.32063
521.50        59.40219
521.93        59.50656
522.37        59.55611
522.81        59.54088
523.25        59.47639
523.69         59.4017
524.13        59.38269
524.57        59.42756
525.01        59.50284
525.45        59.57172
525.89        59.57673
526.32        59.49739
526.76        59.37771
527.20        59.22174
527.64        59.04348
528.08        58.86368
528.52        58.67272
528.96        58.52459
529.40        58.53406
529.83        58.69065
530.27        58.89798
530.71        59.09297
531.15        59.24332
531.59         59.3196
532.03        59.29899
532.46         59.2056
532.90        59.14418
533.34        59.12603
533.78        59.08978
534.22        59.01971
534.66        58.96653
535.09        58.88556
535.53        58.65818
535.97        58.33505
536.41        58.14126
536.85        58.10392
537.28         58.1141
537.72        58.16114
538.16        58.27037
538.60        58.42362
539.04        58.60324
539.47        58.76875
539.91        58.89873
540.35        58.97023
540.79        58.98969
541.22        58.96264
541.66        58.92305
542.10         58.8755
542.54        58.81345
542.97        58.73993
543.41        58.68591
543.85        58.64927
544.29        58.63881
544.72        58.62286
545.16        58.58324
545.60        58.50787
546.04        58.41338
546.47        58.34763
546.91        58.38221
547.35        58.52058
547.79        58.73124
548.22        58.94683
548.66        59.05127
549.10        59.08437
549.53         59.0512
549.97        58.97713
550.41        58.77707
550.84        58.53864
551.28        58.41873
551.72        58.38826
552.15        58.44776
552.59        58.66492
553.03        58.18622
553.46        58.73922
553.90        58.75726
554.34        58.73877
554.77        58.68961
555.21        58.66439
555.65         58.7077
556.08        58.80353
556.52        58.90062
556.96        58.94728
557.39        59.02443
557.83        59.07863
558.27        58.79852
558.70        58.29209
559.14        58.10009
559.57        58.22496
560.01        58.28512
560.45        58.26299
560.88        58.43329
561.32        58.74142
561.75        58.82057
562.19        58.69986
562.63        58.61608
563.06        58.60137
563.50        58.58953
563.93        58.53516
564.37        58.55961
564.80         58.6559
565.24        58.56346
565.68         58.1845
566.11        58.75896
566.55        58.19285
566.98        58.07288
567.42        57.91667
567.85        58.15266
568.29        58.71377
568.72        59.07322
569.16        59.26997
569.60        59.60659
570.03        59.68098
570.47        59.96975
570.90        60.42404
571.34        59.48251
571.77         60.2276
572.21        60.14779
572.64        60.03471
573.08        60.24614
573.51        59.76569
573.95        59.82813
574.38        60.18425
574.82         60.6182
