SpectraSmart Spectrum 2.9.0.0
--------- Device Information -----------
Spectrum Name :  反射率_0
Saving Time :  2024/04/26 23:50:57
Spectro-Module Model Name : SE2030-DUVN
Spectro-Module Serial Number : OS361AC55029948
Wavelength Start : 200
Wavelength End : 1025
Wavelength Unit : Wavelength(nm)
Spectrum Unit : Reflectance(%)
-----------Spectrum Setting ------------
Integration Time : 20ms
Average : 10
Boxcar : 0
Background removal :  enabled
linearity correction :  enabled
SC :  disabled
Intensity correction :  disabled
DWT denoise :  enabled
savitzky-golay :  disabled
FFT :  disabled
Running average :  disabled
Kalman :  disabled
High pass :  disabled
---------------BEGIN--------------------
Wavelength(nm)             Reflectance(%)
200.29               0
200.75        30.13816
201.21         36.2212
201.67        42.09149
202.13        45.33625
202.58        45.83356
203.04        44.71769
203.50        42.53886
203.96        40.84022
204.42        40.81779
204.88        41.93288
205.34        43.61874
205.80        44.86158
206.26        45.18716
206.72        45.07146
207.18        44.75935
207.64         44.3062
208.10        43.81884
208.55        43.52375
209.01        43.18117
209.47        43.47239
209.93        44.46921
210.39        45.48991
210.85        46.85501
211.31        49.58646
211.77        54.92298
212.23         66.5509
212.69        93.90095
213.14        134.3883
213.60        121.2859
214.06        83.80943
214.52        61.72305
214.98         53.3378
215.44        51.19705
215.90        51.64747
216.36        52.82451
216.81        52.05286
217.27         48.6407
217.73        43.16814
218.19         35.8546
218.65        31.14223
219.11         32.4741
219.57        36.51326
220.02        41.42075
220.48        48.19039
220.94        58.02176
221.40        73.14227
221.86        93.37485
222.32        106.0506
222.77        100.0506
223.23        84.13506
223.69        68.03513
224.15        57.06052
224.61        50.54593
225.06        46.35574
225.52        44.08666
225.98        43.19098
226.44        43.24897
226.90          44.215
227.36        45.52548
227.81        46.12776
228.27        45.85954
228.73        44.90213
229.19        43.77689
229.65        43.11784
230.10        42.98157
230.56        43.21558
231.02        43.43417
231.48        43.09436
231.93        42.12133
232.39        40.95426
232.85         40.0351
233.31        39.99267
233.77        40.82239
234.22        42.30561
234.68        43.88449
235.14         44.8005
235.60        44.84968
236.05        44.27631
236.51        43.40332
236.97        42.93764
237.43        43.23454
237.88        44.18503
238.34        45.67994
238.80        47.80227
239.26        50.69968
239.71        54.96268
240.17        60.44479
240.63        66.41482
241.08        72.16693
241.54        76.86436
242.00        81.18222
242.46        87.65302
242.91        98.73264
243.37        115.3095
243.83        138.4508
244.28        160.0519
244.74        165.1796
245.20        152.6904
245.66        132.6107
246.11        114.0861
246.57        98.76238
247.03        84.22259
247.48        72.09982
247.94        66.95568
248.40        68.51982
248.85        73.19416
249.31        77.78807
249.77        79.50994
250.22        78.17194
250.68        73.91061
251.14        67.45144
251.59        62.76519
252.05          62.788
252.51        66.36982
252.96        69.71518
253.42        69.58301
253.88        66.38638
254.33        61.66212
254.79        58.69823
255.25        59.94942
255.70        64.93217
256.16        72.33176
256.62        78.73788
257.07        79.12864
257.53        74.86034
257.99        69.07633
258.44        64.18412
258.90        62.43132
259.35        62.72915
259.81        64.20596
260.27        65.56351
260.72        65.32603
261.18        63.74002
261.63        61.32197
262.09        59.07605
262.55        57.49497
263.00         56.4907
263.46         55.9196
263.91        55.32026
264.37         54.4587
264.83         53.2778
265.28         51.9053
265.74        50.70031
266.19        49.77914
266.65        49.21295
267.11        48.81108
267.56        48.44303
268.02        47.92766
268.47        47.20995
268.93        46.39095
269.38        45.45393
269.84        44.42799
270.30        43.33316
270.75        42.16459
271.21        41.07866
271.66        40.24861
272.12        39.70062
272.57        39.35538
273.03        39.04275
273.48        38.47541
273.94        37.64625
274.39        36.62152
274.85        35.61433
275.31        34.78356
275.76        34.14059
276.22        33.65284
276.67        33.21582
277.13        32.77284
277.58        32.25568
278.04        31.72591
278.49        31.15206
278.95        30.59789
279.40        30.03368
279.86         29.5115
280.31         28.9869
280.77        28.50286
281.22        28.02509
281.68         27.5957
282.13        27.20748
282.59         26.9277
283.04        26.72806
283.50        26.61655
283.95        26.52568
284.41        26.36151
284.86        26.11789
285.32        25.85913
285.77        25.66079
286.22        25.68926
286.68        25.95638
287.13        26.35305
287.59        26.79525
288.04        27.11018
288.50        27.26558
288.95        27.28512
289.41        27.20224
289.86        27.00169
290.32        26.75208
290.77        26.46496
291.22          26.245
291.68        26.23197
292.13         26.4518
292.59        26.89719
293.04        27.52192
293.50        28.25633
293.95        29.06328
294.40        29.96895
294.86        30.96784
295.31        32.04234
295.77        33.19799
296.22        34.41275
296.68        35.71964
297.13        37.16227
297.58        38.75246
298.04        40.47672
298.49        42.27728
298.95        44.08054
299.40          45.846
299.85        47.58569
300.31        49.33635
300.76        51.13833
301.21        53.00531
301.67        54.93357
302.12        56.84336
302.58        58.70392
303.03        60.46263
303.48        62.16197
303.94        63.87529
304.39        65.64492
304.84        67.50542
305.30        69.44399
305.75        71.36204
306.20        73.19778
306.66        74.94745
307.11        76.60156
307.57        78.20243
308.02        79.70876
308.47        81.14701
308.93        82.51698
309.38        83.84998
309.83        85.31075
310.29        86.92122
310.74        88.63631
311.19        90.27217
311.65        91.49963
312.10        92.23401
312.55        92.56544
313.00        92.77922
313.46        93.32466
313.91        94.27183
314.36        95.51682
314.82         96.7716
315.27        97.57782
315.72        97.81049
316.18         97.6568
316.63         97.3655
317.08        97.36623
317.53         97.7738
317.99         98.4423
318.44        99.21566
318.89        99.81106
319.35        100.1339
319.80        100.2811
320.25        100.3392
320.70         100.442
321.16        100.6331
321.61        100.8989
322.06         101.183
322.51        101.4151
322.97         101.561
323.42        101.6478
323.87        101.7698
324.32        102.0935
324.78        102.6085
325.23        103.3403
325.68        104.0183
326.13        104.2104
326.59        103.8344
327.04        103.0514
327.49        102.2417
327.94        102.0374
328.39        102.5809
328.85        103.6572
329.30        104.9959
329.75        105.8497
330.20        105.9828
330.66        105.5891
331.11         105.028
331.56        104.8097
332.01        105.0992
332.46        105.7038
332.92        106.4221
333.37        107.0778
333.82        107.5169
334.27        107.8684
334.72         108.119
335.17        108.2177
335.63        108.1908
336.08        108.1004
336.53        108.1356
336.98        108.6678
337.43        109.7578
337.88        111.2683
338.34        112.9065
338.79        114.2821
339.24        115.1724
339.69        115.6722
340.14         115.818
340.59        115.7059
341.05        115.4585
341.50        115.0733
341.95        114.7333
342.40        114.7171
342.85        115.0915
343.30        115.7983
343.75        116.7159
344.20        117.6082
344.66         118.373
345.11        119.0417
345.56        119.5746
346.01        119.9297
346.46         120.132
346.91        120.2066
347.36        120.2401
347.81        120.3913
348.26        120.6916
348.72        121.0762
349.17        121.5329
349.62        122.0712
350.07        122.6512
350.52        123.2846
350.97        123.7442
351.42         123.669
351.87        123.0346
352.32        121.9727
352.77        120.9017
353.22        120.4394
353.67        120.6994
354.13        121.4983
354.58        122.4479
355.03        122.8453
355.48        122.5009
355.93        121.6271
356.38        120.6059
356.83        120.0149
357.28        119.9739
357.73        120.2688
358.18        120.5874
358.63        120.4417
359.08        119.7103
359.53        118.5842
359.98        117.3064
360.43        116.2123
360.88        115.3929
361.33        114.7415
361.78        114.1444
362.23        113.4351
362.68        112.5782
363.13        111.6559
363.58        110.7464
364.03        109.9468
364.48        109.2726
364.93         108.669
365.38        108.0878
365.83         107.469
366.28        106.7944
366.73        106.0906
367.18        105.3626
367.63        104.6106
368.08        103.8442
368.53        103.0684
368.98        102.3121
369.43        101.6194
369.88        101.0001
370.33        100.4432
370.78        99.92427
371.23        99.40714
371.68        98.87392
372.13        98.31972
372.58        97.75699
373.03        97.20374
373.48        96.65829
373.93        96.11719
374.38        95.52952
374.83        94.82586
375.28        94.00584
375.72        93.07394
376.17        92.19572
376.62        91.50401
377.07        91.03413
377.52        90.77213
377.97        90.57037
378.42        90.19862
378.87        89.61472
379.32        88.85995
379.77        88.17402
380.22        87.91167
380.67        88.10088
381.11        88.64989
381.56        89.12032
382.01        88.87238
382.46        87.81026
382.91        86.22675
383.36        84.61987
383.81        83.66675
384.26        83.48615
384.71        83.84086
385.15        84.45641
385.60        84.85028
386.05         84.8538
386.50        84.61148
386.95        84.17408
387.40        83.62511
387.85        83.03189
388.29        82.31536
388.74        81.67793
389.19        81.19693
389.64        80.88632
390.09        80.73477
390.54        80.64254
390.98        80.41325
391.43        80.04221
391.88        79.56776
392.33        79.12119
392.78        78.81659
393.23        78.65692
393.67        78.76003
394.12        79.01045
394.57        78.60753
395.02        77.74059
395.47        77.56831
395.91        78.03942
396.36        78.04549
396.81        77.57195
397.26        77.26796
397.71        77.15128
398.15        76.96719
398.60        76.80666
399.05        76.56707
399.50        76.29991
399.95         76.3353
400.39        76.56207
400.84        76.34026
401.29        75.56106
401.74        75.19634
402.18        75.18987
402.63        74.82085
403.08        74.19343
403.53        73.90708
403.97        73.98081
404.42        74.14817
404.87        74.28719
405.32         74.2337
405.76        73.92783
406.21         73.6108
406.66        73.34631
407.11        72.89785
407.55        72.49981
408.00        72.85413
408.45        73.77977
408.90        74.27616
409.34        74.10149
409.79        73.49631
410.24        72.72249
410.68          72.231
411.13        72.11978
411.58        72.13963
412.03         72.1633
412.47        72.09412
412.92        71.86844
413.37        71.56047
413.81        71.27241
414.26        71.21812
414.71        71.40039
415.15        71.76803
415.60        72.18031
416.05        72.47813
416.49        72.59935
416.94        72.57825
417.39         72.4699
417.83        72.34591
418.28        72.24834
418.73        72.16331
419.17        72.10823
419.62        72.11492
420.07        72.17381
420.51        72.25182
420.96        72.36708
421.41        72.44343
421.85        72.43136
422.30         72.5293
422.74        72.60918
423.19         72.3317
423.64        71.79745
424.08        71.66067
424.53        71.91821
424.98        72.06243
425.42        72.07861
425.87        72.28789
426.31        72.62173
426.76         72.6897
427.21        72.51517
427.65        72.36532
428.10        72.26945
428.54        72.24232
428.99        72.33935
429.44        72.25686
429.88         72.1541
430.33        72.80168
430.77        73.83494
431.22        74.32816
431.66        74.14732
432.11        73.50903
432.56        72.70139
433.00         72.4594
433.45        73.00169
433.89        73.70026
434.34        73.83974
434.78        75.41831
435.23        74.14837
435.67        72.72102
436.12        72.66297
436.57         72.9351
437.01        73.94202
437.46        74.38966
437.90        73.84555
438.35        73.39931
438.79        73.34721
439.24        73.26781
439.68        73.23169
440.13        73.40675
440.57        73.81853
441.02        73.93673
441.46        73.80253
441.91        74.66178
442.35         76.0342
442.80        75.48845
443.24          74.502
443.69        74.32997
444.13        75.27271
444.58        75.70433
445.02        75.53271
445.47        75.44992
445.91        75.52441
446.36        75.72469
446.80        76.03655
447.24        76.35728
447.69        76.63357
448.13        76.84033
448.58        76.96799
449.02        76.98973
449.47        76.91707
449.91        76.74323
450.36        76.51574
450.80        76.23029
451.25        75.98744
451.69        75.87635
452.13        75.93084
452.58        76.11245
453.02        76.34756
453.47        76.51939
453.91        76.57547
454.36        76.55939
454.80        76.48906
455.24        76.26048
455.69        75.88298
456.13        75.62962
456.58        75.63899
457.02        74.78172
457.46        74.77362
457.91        74.97754
458.35        75.55812
458.79        75.55125
459.24        74.97796
459.68        74.18079
460.13         73.4522
460.57        73.20267
461.01        73.58447
461.46        73.54851
461.90        74.28229
462.34        74.90546
462.79        74.84526
463.23        74.87946
463.68        74.69625
464.12        74.35929
464.56        73.89086
465.01        73.13692
465.45        72.30742
465.89         72.3449
466.34        73.00113
466.78        73.12498
467.22        72.75336
467.67        72.19083
468.11        72.52699
468.55        72.62698
468.99        72.69914
469.44        72.61566
469.88        72.37888
470.32        72.11752
470.77        71.88014
471.21        71.68673
471.65        71.54641
472.10        71.46896
472.54        71.44359
472.98        71.41172
473.42        71.34476
473.87        71.41384
474.31        71.50302
474.75        71.16622
475.20        70.58215
475.64        70.51404
476.08        70.91978
476.52        70.96553
476.97        70.60063
477.41        70.45473
477.85        70.68687
478.29        70.12374
478.74        70.85875
479.18        70.88567
479.62        70.82352
480.06        70.77039
480.50        70.70636
480.95        70.68166
481.39        70.72186
481.83        70.38742
482.27        70.24019
482.72        70.92928
483.16        70.59445
483.60        70.72449
484.04         70.6668
484.48        71.02531
484.93        70.90961
485.37        70.83337
485.81        69.68584
486.25        69.96585
486.69        71.68305
487.14        72.39774
487.58         70.6046
488.02        70.68156
488.46        69.86498
488.90        69.44325
489.34         70.8821
489.79        71.78194
490.23        70.55896
490.67        69.85011
491.11        69.34335
491.55        69.33344
491.99        69.68845
492.43        69.70004
492.88        69.35844
493.32        69.25214
493.76        69.41112
494.20         69.5174
494.64        69.54547
495.08         69.6071
495.52        69.66412
495.96        69.60155
496.41        69.41984
496.85        69.28468
497.29        69.13041
497.73        69.06454
498.17        68.27408
498.61        68.41984
499.05        68.72459
499.49        68.93497
499.93        68.66601
500.37        68.72099
500.82        69.00246
501.26         69.1169
501.70        69.05602
502.14         69.0304
502.58         69.0893
503.02        69.18839
503.46        69.33173
503.90        69.55396
504.34        69.73991
504.78        69.68817
505.22        69.37488
505.66        68.85625
506.10        68.31979
506.54        68.09395
506.98        68.21949
507.42        68.54303
507.86        68.86156
508.30        69.06534
508.74        69.06833
509.18        68.89298
509.62        68.62939
510.06        68.45224
510.50        68.40927
510.94        68.43694
511.38        68.49967
511.82        68.54639
512.26        68.55817
512.70        68.56624
513.14        68.56859
513.58        68.55254
514.02        68.52252
514.46        68.47376
514.90        68.43597
515.34        68.47027
515.78        68.57985
516.22        68.71865
516.66        68.83756
517.10        68.90376
517.54        68.87869
517.98        68.69265
518.42        68.40234
518.86        68.19406
519.30        68.10194
519.74        68.03741
520.18        68.01241
520.62        68.06934
521.06        68.20212
521.50         68.4105
521.93        68.62202
522.37        68.69307
522.81        68.60722
523.25        68.39352
523.69        68.17561
524.13        68.15241
524.57         68.3532
525.01        68.70618
525.45        69.06139
525.89        69.17566
526.32         68.9877
526.76        68.60479
527.20        68.15062
527.64        67.82224
528.08        67.68053
528.52        67.66426
528.96        67.73083
529.40        67.81432
529.83         67.8812
530.27        67.96157
530.71        68.03184
531.15        68.05605
531.59        68.03067
532.03        67.95589
532.46         67.8498
532.90        67.79694
533.34        67.80219
533.78        67.80685
534.22        67.79666
534.66        67.83141
535.09        67.85408
535.53        67.71712
535.97        67.45356
536.41        67.29126
536.85         67.2542
537.28        67.22178
537.72        67.20868
538.16        67.29024
538.60        67.45705
539.04        67.67873
539.47        67.88096
539.91        67.99392
540.35        67.98618
540.79        67.88732
541.22         67.7391
541.66        67.63351
542.10        67.59012
542.54        67.58447
542.97        67.59591
543.41        67.62233
543.85        67.64665
544.29        67.68568
544.72        67.71149
545.16        67.71239
545.60        67.67276
546.04        67.61163
546.47        67.57734
546.91        67.57572
547.35        67.73333
547.79        67.91145
548.22        68.06934
548.66        68.12481
549.10        68.10556
549.53        67.89322
549.97        67.59816
550.41         67.3538
550.84        67.26897
551.28        67.45033
551.72        67.76646
552.15        67.91252
552.59        68.05788
553.03        67.46593
553.46        67.79206
553.90        67.60245
554.34         67.5309
554.77        67.57262
555.21        67.83043
555.65        67.47909
556.08        67.82985
556.52        67.80672
556.96        67.77387
557.39        67.72456
557.83        67.66322
558.27        67.43756
558.70        67.08447
559.14        66.91726
559.57        66.93102
560.01        66.88864
560.45        66.83684
560.88        67.09089
561.32        67.56773
561.75        67.83575
562.19         67.8591
562.63        67.69689
563.06        67.44646
563.50        67.41866
563.93        67.53336
564.37        67.51792
564.80        67.40122
565.24         67.2647
565.68        66.98107
566.11        67.68958
566.55        66.96239
566.98        66.80563
567.42        66.64468
567.85        66.79144
568.29         67.2203
568.72        67.57721
569.16        67.86845
569.60        68.23273
570.03        68.12285
570.47        68.35696
570.90        68.74547
571.34        67.75701
571.77        68.27739
572.21        68.67943
572.64        68.23964
573.08        68.98898
573.51        67.96411
573.95        68.18363
574.38        68.95025
574.82        68.81992
