SpectraSmart Spectrum 2.9.0.0
--------- Device Information -----------
Spectrum Name :  反射率_0
Saving Time :  2024/04/26 23:53:22
Spectro-Module Model Name : SE2030-DUVN
Spectro-Module Serial Number : OS361AC55029948
Wavelength Start : 200
Wavelength End : 1025
Wavelength Unit : Wavelength(nm)
Spectrum Unit : Reflectance(%)
-----------Spectrum Setting ------------
Integration Time : 20ms
Average : 10
Boxcar : 0
Background removal :  enabled
linearity correction :  enabled
SC :  disabled
Intensity correction :  disabled
DWT denoise :  enabled
savitzky-golay :  disabled
FFT :  disabled
Running average :  disabled
Kalman :  disabled
High pass :  disabled
---------------BEGIN--------------------
Wavelength(nm)             Reflectance(%)
200.29               0
200.75        34.75063
201.21        34.43871
201.67        35.31015
202.13        36.98322
202.58        39.33535
203.04        43.46892
203.50        48.72956
203.96        51.81636
204.42        50.51722
204.88        44.42239
205.34        37.18589
205.80        36.30622
206.26        42.64142
206.72        52.43839
207.18        60.76016
207.64         63.5885
208.10        60.81303
208.55        53.36068
209.01        41.24755
209.47         32.7781
209.93        34.23283
210.39        40.80597
210.85        47.59703
211.31        53.23353
211.77        59.36614
212.23        69.91528
212.69        95.11475
213.14        143.3271
213.60        151.5098
214.06        125.3559
214.52        103.1372
214.98        88.74139
215.44        77.05965
215.90        64.56534
216.36        53.53606
216.81         48.4577
217.27        51.18801
217.73        63.08991
218.19           81.69
218.65        89.08908
219.11        78.51935
219.57         61.8822
220.02        50.75003
220.48         50.8086
220.94        61.14163
221.40        82.39616
221.86        113.4243
222.32        132.8495
222.77        123.0054
223.23        98.66332
223.69        75.44404
224.15          61.839
224.61        56.02731
225.06        53.59844
225.52        53.15257
225.98        53.28769
226.44        53.48567
226.90        54.27165
227.36        54.84301
227.81        53.74467
228.27        51.13294
228.73        47.49837
229.19        44.33318
229.65        43.35796
230.10        44.56576
230.56        47.39971
231.02        50.45415
231.48        51.47803
231.93        50.09104
232.39        47.43821
232.85         44.9124
233.31        44.36104
233.77        45.92958
234.22        48.91581
234.68        52.24843
235.14        54.35947
235.60         54.7833
236.05        54.05423
236.51        52.64403
236.97        51.61227
237.43        51.51211
237.88        52.08427
238.34        53.31915
238.80        55.50816
239.26        58.88338
239.71        64.28537
240.17        71.32149
240.63        78.37129
241.08        84.13555
241.54        87.46127
242.00        90.04938
242.46        96.72158
242.91        111.3624
243.37        136.3036
243.83        172.2016
244.28         202.457
244.74        202.5926
245.20        173.3413
245.66        137.3685
246.11        114.5403
246.57        105.5296
247.03        104.1421
247.48        105.5797
247.94         102.856
248.40        96.24042
248.85        89.70348
249.31        84.80397
249.77        81.00506
250.22        77.46156
250.68        72.95141
251.14        67.91375
251.59        65.41993
252.05        67.34736
252.51        72.65591
252.96         77.3923
253.42         78.3039
253.88        75.86784
254.33        71.51636
254.79        68.62405
255.25        69.72779
255.70        74.43643
256.16        81.54281
256.62        87.83177
257.07        88.50478
257.53        84.80305
257.99        79.58698
258.44        75.11452
258.90        73.65075
259.35        74.10466
259.81        75.76361
260.27         77.2254
260.72        76.90753
261.18        75.11717
261.63        72.31293
262.09        69.79379
262.55        68.28854
263.00        67.62231
263.46        67.57201
263.91         67.2645
264.37        66.00291
264.83         63.7773
265.28        60.99003
265.74        58.47866
266.19        56.91134
266.65        56.41282
267.11        56.55787
267.56        56.88741
268.02        56.69906
268.47        55.79496
268.93        54.46431
269.38        52.87919
269.84        51.36309
270.30        50.02012
270.75         48.7298
271.21        47.60148
271.66        46.74237
272.12        46.14814
272.57        45.77604
273.03        45.42211
273.48        44.72546
273.94        43.68624
274.39        42.38861
274.85        41.13071
275.31        40.17745
275.76        39.55021
276.22        39.18522
276.67        38.89856
277.13        38.53883
277.58        38.00367
278.04        37.37771
278.49        36.67819
278.95        36.05907
279.40        35.49013
279.86        34.99842
280.31        34.45635
280.77        33.80574
281.22        33.01645
281.68        32.21564
282.13        31.48153
282.59        31.00833
283.04        30.78111
283.50        30.75215
283.95        30.82639
284.41        30.86882
284.86        30.82864
285.32        30.77246
285.77          30.698
286.22        30.67367
286.68        30.71409
287.13        30.74612
287.59         30.7993
288.04        30.87464
288.50        30.98393
288.95        31.09604
289.41        31.16672
289.86        31.05207
290.32        30.79381
290.77        30.44412
291.22        30.15293
291.68        30.12014
292.13        30.38944
292.59        30.93712
293.04        31.68953
293.50        32.54369
293.95        33.44624
294.40        34.41851
294.86        35.48928
295.31        36.69329
295.77        38.03244
296.22        39.45765
296.68        40.90901
297.13        42.28654
297.58        43.58863
298.04        44.85981
298.49        46.17088
298.95        47.65335
299.40        49.31638
299.85        51.11095
300.31        52.97933
300.76        54.80756
301.21        56.56877
301.67        58.31407
302.12        60.00746
302.58        61.68668
303.03        63.32067
303.48        64.92738
303.94        66.57398
304.39         68.2951
304.84        70.12083
305.30        72.04304
305.75        73.95372
306.20        75.77825
306.66        77.50469
307.11        79.11383
307.57        80.65289
308.02        82.08649
308.47        83.44505
308.93        84.73627
309.38         85.9705
309.83        87.28274
310.29        88.69752
310.74        90.18064
311.19        91.61398
311.65        92.77064
312.10        93.58495
312.55        94.12091
313.00        94.56779
313.46        95.22881
313.91        96.14551
314.36        97.25125
314.82        98.36331
315.27        99.19985
315.72        99.66653
316.18        99.88183
316.63        99.96656
317.08        100.1585
317.53        100.5308
317.99        101.0041
318.44        101.5227
318.89        101.9654
319.35        102.2907
319.80        102.5485
320.25        102.7735
320.70        103.0182
321.16         103.295
321.61        103.6136
322.06        103.9374
322.51         104.223
322.97        104.4428
323.42        104.6138
323.87        104.7967
324.32        105.1132
324.78         105.545
325.23        106.1294
325.68        106.6633
326.13        106.8286
326.59        106.5695
327.04        106.0217
327.49         105.459
327.94        105.3474
328.39         105.795
328.85        106.6261
329.30        107.6979
329.75          108.49
330.20        108.8252
330.66         108.819
331.11        108.6799
331.56        108.6758
332.01        108.9056
332.46        109.2488
332.92         109.604
333.37        109.9785
333.82        110.2836
334.27          110.59
334.72        110.8505
335.17        110.9562
335.63        110.9083
336.08        110.8089
336.53        110.8201
336.98         111.259
337.43        112.1822
337.88        113.4512
338.34        114.8582
338.79         116.168
339.24        117.1892
339.69        117.9769
340.14        118.4304
340.59        118.4201
341.05        118.0178
341.50        117.2859
341.95        116.5608
342.40        116.3562
342.85        116.7939
343.30        117.7513
343.75        118.9606
344.20        119.9471
344.66        120.5512
345.11        120.8776
345.56        121.0483
346.01        121.2748
346.46        121.6263
346.91         122.029
347.36        122.3945
347.81        122.6155
348.26        122.6671
348.72        122.5859
349.17         122.499
349.62        122.6325
350.07        123.0149
350.52        123.5906
350.97        124.0781
351.42        124.0297
351.87        123.3823
352.32        122.2962
352.77        121.1843
353.22        120.6462
353.67         120.797
354.13        121.4549
354.58        122.2419
355.03        122.4857
355.48        122.0098
355.93        121.0138
356.38        119.9012
356.83        119.2779
357.28        119.2551
357.73        119.6073
358.18        119.9508
358.63        119.6815
359.08        118.6662
359.53        117.1465
359.98        115.4637
360.43        114.0981
360.88        113.1766
361.33        112.5523
361.78        112.0572
362.23        111.4337
362.68        110.6122
363.13        109.6936
363.58        108.7713
364.03        107.9681
364.48        107.3005
364.93        106.6921
365.38        106.0737
365.83         105.358
366.28        104.5307
366.73        103.6477
367.18         102.738
367.63        101.8335
368.08        100.9587
368.53        100.1067
368.98        99.33092
369.43        98.71149
369.88        98.25152
370.33        97.92463
370.78        97.62586
371.23        97.18542
371.68        96.55564
372.13        95.76671
372.58        94.92446
373.03        94.20445
373.48        93.64284
373.93        93.18493
374.38        92.71207
374.83        92.04236
375.28        91.14636
375.72         90.0808
376.17        89.03639
376.62        88.17999
377.07        87.56767
377.52        87.17172
377.97        86.88166
378.42        86.53131
378.87        86.07867
379.32        85.53925
379.77        85.08009
380.22        84.94682
380.67        85.14639
381.11        85.61819
381.56        85.97424
382.01        85.66602
382.46        84.62489
382.91         83.1049
383.36        81.58502
383.81        80.71814
384.26         80.6106
384.71        81.03906
385.15        81.69607
385.60        82.04337
386.05        81.90744
386.50        81.44849
386.95        80.78976
387.40        80.12775
387.85        79.54948
388.29        78.94401
388.74        78.42715
389.19        77.96438
389.64        77.54828
390.09        77.19751
390.54        76.89703
390.98        76.59119
391.43         76.3126
391.88        76.05719
392.33        75.84607
392.78        75.68649
393.23        75.56745
393.67        75.50645
394.12        75.52143
394.57        75.33409
395.02        75.00023
395.47         74.8855
395.91        74.95813
396.36        74.80091
396.81        74.43073
397.26        74.10887
397.71        73.82944
398.15        73.49511
398.60        73.20596
399.05        72.78995
399.50        72.38184
399.95        72.49606
400.39        73.00385
400.84        73.05215
401.29        72.60126
401.74        72.28639
402.18        72.13251
402.63        71.70916
403.08        71.14767
403.53        70.83717
403.97        70.81403
404.42        70.97022
404.87        71.16592
405.32        71.15368
405.76        70.87228
406.21        70.49598
406.66        70.11536
407.11        69.78109
407.55        69.62962
408.00        69.75746
408.45        70.08126
408.90        70.43932
409.34        70.59861
409.79        70.11717
410.24        69.24615
410.68        68.82517
411.13        68.93919
411.58        69.14087
412.03         69.2674
412.47        69.24202
412.92        68.98888
413.37        68.58121
413.81        68.15281
414.26        67.95592
414.71         68.0114
415.15         68.2716
415.60        68.60442
416.05        68.85509
416.49        68.96564
416.94        68.97162
417.39        68.93012
417.83        68.91409
418.28        68.95387
418.73        69.02058
419.17        69.09516
419.62        69.15713
420.07        69.18734
420.51        69.16917
420.96        69.14793
421.41        69.11037
421.85        69.02586
422.30        69.03661
422.74        69.02557
423.19        68.74127
423.64        68.25113
424.08        68.03559
424.53        68.10004
424.98        68.15582
425.42        68.21166
425.87        68.34692
426.31        68.54406
426.76        68.83423
427.21        69.12141
427.65        68.98422
428.10         68.4921
428.54        68.32896
428.99        68.57815
429.44        68.48271
429.88        68.22028
430.33        68.96244
430.77        70.23457
431.22        70.58801
431.66        69.98417
432.11        69.20482
432.56        68.61923
433.00        68.59106
433.45        69.19685
433.89         69.9687
434.34        70.21453
434.78         70.6323
435.23        69.58327
435.67        67.51788
436.12        68.83749
436.57        68.98008
437.01        69.17304
437.46        69.25391
437.90        69.24281
438.35        68.91306
438.79        68.87626
439.24        68.83745
439.68        68.95188
440.13        69.23208
440.57        69.65776
441.02        69.89448
441.46        69.93723
441.91        70.46902
442.35        71.16602
442.80         71.0365
443.24        70.23203
443.69        70.05476
444.13        70.50723
444.58         70.6726
445.02        70.53813
445.47        70.65507
445.91        70.99953
446.36        71.28986
446.80        71.48138
447.24        71.65522
447.69        71.78571
448.13        71.81356
448.58        71.77046
449.02        71.64801
449.47        71.48478
449.91         71.5017
450.36        71.37072
450.80        71.38071
451.25        71.43111
451.69        71.46715
452.13        71.48878
452.58        71.50775
453.02        71.52469
453.47        71.53576
453.91        71.52711
454.36        71.51787
454.80        71.49024
455.24        71.32824
455.69        71.02992
456.13        70.91049
456.58        70.67377
457.02         70.3503
457.46        70.00704
457.91        70.27555
458.35        70.87272
458.79        70.86272
459.24        70.26551
459.68        69.45496
460.13        68.73792
460.57        68.47844
461.01        68.82885
461.46        68.75503
461.90        69.67388
462.34        70.08263
462.79        70.33106
463.23        70.44763
463.68        70.36803
464.12         70.1392
464.56        69.70705
465.01        68.89198
465.45        67.95912
465.89        67.63213
466.34        67.82729
466.78        68.34188
467.22        69.00983
467.67        68.19275
468.11        67.83531
468.55        67.77885
468.99         68.4581
469.44        68.56763
469.88         68.0853
470.32        67.75888
470.77        67.65369
471.21        67.55364
471.65        67.46535
472.10        67.46211
472.54        67.50816
472.98        67.52832
473.42        67.49476
473.87        67.50702
474.31        67.50239
474.75        67.26323
475.20        66.87862
475.64        66.80858
476.08        67.06441
476.52        66.96297
476.97        66.42287
477.41        66.74685
477.85        66.70309
478.29        66.04612
478.74        66.69691
479.18        66.73737
479.62        66.82108
480.06         66.8352
480.50        66.78284
480.95        66.78142
481.39        66.80817
481.83        66.40793
482.27        66.52522
482.72        66.41585
483.16        66.32536
483.60        66.34292
484.04        66.42432
484.48         66.7543
484.93        67.13812
485.37        66.87746
485.81        66.14677
486.25        66.19312
486.69        66.41965
487.14        67.24374
487.58        65.77132
488.02        67.07106
488.46        65.63754
488.90        65.66472
489.34        66.72372
489.79        67.48695
490.23        67.16991
490.67        66.58104
491.11        65.80626
491.55        65.61172
491.99        65.95329
492.43         65.9362
492.88        65.55633
493.32        65.47362
493.76        65.68649
494.20        65.83392
494.64        65.88306
495.08         65.9126
495.52        65.91916
495.96        65.94099
496.41        65.95218
496.85        65.87666
497.29        65.65577
497.73        65.61187
498.17        65.00346
498.61        65.10714
499.05        65.57898
499.49        65.80494
499.93        65.50671
500.37        65.47735
500.82        65.70567
501.26        65.49087
501.70        65.69176
502.14        65.66099
502.58        65.67136
503.02        65.71916
503.46        65.80764
503.90        65.90885
504.34        65.97461
504.78        65.95551
505.22        65.83014
505.66        65.65245
506.10         65.4939
506.54        65.33758
506.98        65.17818
507.42        65.49058
507.86        65.41801
508.30        65.42399
508.74        65.45054
509.18        65.37615
509.62        65.28341
510.06        65.21649
510.50        65.19849
510.94         65.2031
511.38        65.22087
511.82        65.24194
512.26        65.26221
512.70        65.29115
513.14        65.32771
513.58        65.36931
514.02        65.41522
514.46        65.45178
514.90         65.4782
515.34        65.54781
515.78        65.66611
516.22        65.72522
516.66        65.66338
517.10        65.87807
517.54          65.577
517.98        65.42238
518.42        65.23128
518.86          65.104
519.30        65.05981
519.74        65.08191
520.18        65.16231
520.62        65.26288
521.06        65.37031
521.50        65.49824
521.93        65.62055
522.37        65.67431
522.81        65.65789
523.25        65.57456
523.69        65.48305
524.13        65.48312
524.57        65.58418
525.01        65.74577
525.45         65.8879
525.89        65.87923
526.32        65.68995
526.76        65.39786
527.20        65.06194
527.64        64.78014
528.08        64.59276
528.52        64.46389
528.96        64.41972
529.40        64.51604
529.83         64.7296
530.27        65.01218
530.71        65.27102
531.15        65.40163
531.59        65.38274
532.03        65.19776
532.46        64.91847
532.90        64.81445
533.34        64.93326
533.78        64.81499
534.22        65.03148
534.66         65.0587
535.09        65.01316
535.53        64.76769
535.97         64.3988
536.41         64.1768
536.85        64.13458
537.28        64.14568
537.72        64.19499
538.16        64.30969
538.60        64.46866
539.04        64.65597
539.47        64.82271
539.91        64.93667
540.35        64.97042
540.79        64.93271
541.22        64.84023
541.66        64.74386
542.10        64.65859
542.54        64.58791
542.97        64.51848
543.41        64.45666
543.85        64.39345
544.29        64.33577
544.72        64.30311
545.16        64.34083
545.60        64.43378
546.04        64.63128
546.47        64.86562
546.91        64.88287
547.35        64.72958
547.79        64.73997
548.22        64.89359
548.66        64.93118
549.10        64.88783
549.53        64.76625
549.97        64.61288
550.41        64.41328
550.84        64.25179
551.28        64.24375
551.72        64.33524
552.15        64.46629
552.59         64.6845
553.03        64.30215
553.46        64.77949
553.90        64.75446
554.34         64.6563
554.77         64.5086
555.21        64.39403
555.65        64.40392
556.08        64.53339
556.52        64.71133
556.96        64.86025
557.39        65.02998
557.83        65.14564
558.27        64.88088
558.70        64.35355
559.14        64.12339
559.57        64.20676
560.01        64.27529
560.45        64.29165
560.88        64.41015
561.32        64.60364
561.75        64.66893
562.19         64.6201
562.63        64.53269
563.06        64.44257
563.50        64.39285
563.93        64.34595
564.37        64.39948
564.80        64.54092
565.24        64.48096
565.68         64.0958
566.11          64.735
566.55        64.08199
566.98        63.88676
567.42        63.63935
567.85        63.79647
568.29        64.29034
568.72        64.64667
569.16        64.89745
569.60        64.95998
570.03        65.01525
570.47        65.11899
570.90        65.44064
571.34        64.42895
571.77         64.9372
572.21        65.34577
572.64        64.87504
573.08        65.31257
573.51        64.63977
573.95        64.62543
574.38        64.87772
574.82        65.09263
