SpectraSmart Spectrum 2.9.0.0
--------- Device Information -----------
Spectrum Name :  反射率_0
Saving Time :  2024/04/26 23:59:44
Spectro-Module Model Name : SE2030-DUVN
Spectro-Module Serial Number : OS361AC55029948
Wavelength Start : 200
Wavelength End : 1025
Wavelength Unit : Wavelength(nm)
Spectrum Unit : Reflectance(%)
-----------Spectrum Setting ------------
Integration Time : 20ms
Average : 10
Boxcar : 0
Background removal :  enabled
linearity correction :  enabled
SC :  disabled
Intensity correction :  disabled
DWT denoise :  enabled
savitzky-golay :  disabled
FFT :  disabled
Running average :  disabled
Kalman :  disabled
High pass :  disabled
---------------BEGIN--------------------
Wavelength(nm)             Reflectance(%)
200.29               0
200.75         46.4329
201.21        39.14114
201.67        32.99446
202.13        30.50846
202.58        31.63491
203.04        36.02917
203.50        43.17459
203.96        49.93687
204.42        53.64613
204.88        54.51775
205.34        52.91596
205.80        50.81288
206.26         49.1642
206.72        47.02256
207.18        45.23735
207.64        44.54581
208.10        44.94337
208.55        47.45518
209.01        50.43984
209.47        48.78741
209.93        42.36822
210.39        35.28569
210.85          31.422
211.31        32.86246
211.77        40.70234
212.23        61.01504
212.69        112.0428
213.14        191.7365
213.60        177.1326
214.06        111.2884
214.52        70.56909
214.98        55.12616
215.44        51.71867
215.90        53.23335
216.36        56.14735
216.81        55.69915
217.27          50.395
217.73        41.17255
218.19        29.03886
218.65        22.78058
219.11        27.30821
219.57        35.74483
220.02        43.75864
220.48        51.68537
220.94        61.14718
221.40        74.75313
221.86        92.14904
222.32          101.83
222.77        94.64697
223.23        78.88538
223.69        64.04596
224.15        55.30449
224.61        51.37931
225.06          49.714
225.52        49.25565
225.98        48.69287
226.44        47.75107
226.90        46.92218
227.36        45.97302
227.81        44.54326
228.27        42.87845
228.73        40.96135
229.19         39.5644
229.65        39.61535
230.10        41.00924
230.56        43.43394
231.02         45.7328
231.48           46.05
231.93        44.19515
232.39        41.25833
232.85        38.50958
233.31        37.61967
233.77         38.7453
234.22        41.26649
234.68        44.37907
235.14        46.95826
235.60        48.59976
236.05         49.6726
236.51        50.25058
236.97        50.47879
237.43        50.50328
237.88        50.27031
238.34        49.99755
238.80        50.40423
239.26        51.82445
239.71        54.65393
240.17        58.86422
240.63        64.09329
241.08        69.87652
241.54        75.64065
242.00         81.3622
242.46        87.87383
242.91         96.7133
243.37        108.0797
243.83        122.6619
244.28        136.2341
244.74        139.6206
245.20        131.4232
245.66        118.5381
246.11        107.1688
246.57        98.33273
247.03        90.49283
247.48        82.62587
247.94        74.71973
248.40        68.64124
248.85         64.7995
249.31        62.84091
249.77        61.60863
250.22        60.49759
250.68        59.28383
251.14          58.582
251.59        60.05501
252.05        64.18095
252.51        69.94426
252.96        74.16473
253.42        74.74744
253.88        72.36783
254.33        67.99627
254.79        65.17677
255.25        66.71318
255.70        72.05589
256.16        79.87096
256.62         86.3027
257.07         85.7315
257.53        79.98031
257.99        72.81549
258.44        66.95166
258.90        64.78488
259.35        65.13129
259.81        66.99869
260.27        69.00069
260.72        69.55396
261.18        68.77224
261.63        67.03179
262.09        65.37409
262.55        64.31751
263.00        63.74529
263.46        63.54675
263.91         63.0587
264.37        61.83005
264.83        59.87787
265.28        57.50382
265.74        55.40865
266.19        54.11161
266.65        53.70947
267.11        53.83038
267.56        54.09326
268.02        53.91162
268.47        53.11021
268.93        51.93559
269.38        50.47136
269.84        48.90575
270.30        47.33814
270.75        45.72536
271.21        44.29361
271.66         43.3199
272.12        42.84011
272.57        42.75399
273.03        42.78835
273.48        42.47232
273.94        41.74094
274.39         40.6818
274.85        39.58442
275.31        38.71389
275.76        38.10098
276.22        37.69018
276.67        37.29578
277.13        36.76221
277.58        36.01273
278.04        35.15486
278.49        34.28162
278.95        33.64316
279.40        33.21947
279.86        32.99247
280.31        32.74847
280.77        32.30246
281.22        31.59395
281.68        30.77224
282.13        29.97863
282.59        29.49114
283.04        29.31442
283.50        29.38425
283.95        29.53552
284.41        29.52286
284.86        29.29157
285.32        28.95681
285.77        28.65015
286.22        28.61963
286.68        28.89672
287.13        29.34266
287.59        29.83091
288.04        30.12619
288.50        30.18996
288.95        30.06751
289.41        29.85794
289.86        29.63059
290.32        29.46885
290.77        29.35672
291.22        29.32133
291.68        29.38535
292.13        29.55792
292.59        29.87431
293.04        30.38504
293.50        31.17405
293.95        32.23158
294.40        33.52719
294.86        34.95036
295.31        36.32057
295.77        37.60089
296.22         38.8128
296.68        40.06651
297.13        41.52515
297.58        43.23166
298.04        45.13358
298.49        47.11518
298.95        49.01514
299.40        50.77796
299.85        52.46225
300.31        54.16171
300.76        55.99322
301.21        57.99105
301.67        60.11989
302.12         62.2709
302.58        64.37866
303.03        66.36611
303.48        68.28416
303.94        70.19348
304.39        72.10931
304.84        74.07121
305.30        76.07745
305.75        78.05025
306.20        79.97125
306.66        81.84678
307.11        83.64654
307.57        85.40717
308.02        87.06591
308.47        88.64201
308.93        90.14377
309.38         91.5793
309.83        93.08824
310.29        94.69216
310.74        96.34983
311.19        97.91855
311.65        99.13583
312.10        99.92909
312.55        100.3721
313.00        100.7004
313.46        101.2846
313.91        102.1815
314.36        103.3187
314.82        104.4626
315.27        105.2468
315.72        105.5654
316.18        105.5702
316.63        105.4631
317.08        105.6073
317.53        106.0963
317.99        106.8051
318.44        107.5855
318.89        108.1647
319.35        108.4593
319.80        108.5641
320.25        108.5884
320.70        108.7047
321.16        108.9632
321.61        109.3441
322.06        109.7647
322.51        110.1074
322.97         110.321
323.42        110.4436
323.87        110.5827
324.32        110.9325
324.78        111.4861
325.23        112.2615
325.68         112.975
326.13        113.1757
326.59        112.7803
327.04        111.9698
327.49         111.129
327.94        110.8961
328.39        111.4203
328.85        112.4782
329.30        113.8354
329.75        114.7893
330.20        115.1013
330.66        114.9363
331.11        114.5919
331.56        114.4743
332.01        114.7256
332.46        115.1867
332.92        115.6921
333.37        116.1493
333.82        116.4384
334.27        116.6697
334.72        116.8598
335.17        117.0007
335.63        117.1121
336.08        117.2495
336.53        117.5151
336.98        118.1347
337.43        119.1332
337.88        120.4058
338.34         121.747
338.79        122.9354
339.24        123.7991
339.69        124.3946
340.14        124.6946
340.59        124.6839
341.05        124.4565
341.50         124.049
341.95        123.6887
342.40        123.7201
342.85        124.2192
343.30        125.0848
343.75          126.16
344.20        127.1588
344.66        127.9562
345.11        128.6008
345.56        129.0376
346.01         129.204
346.46        129.1343
346.91        128.8629
347.36        128.5447
347.81        128.4412
348.26        128.6063
348.72        128.9609
349.17         129.411
349.62        129.8316
350.07        130.1591
350.52        130.4475
350.97        130.5773
351.42        130.3622
351.87        129.8098
352.32        128.9845
352.77        128.1813
353.22        127.8368
353.67        128.0202
354.13        128.5975
354.58        129.2655
355.03         129.466
355.48        129.0486
355.93        128.1708
356.38        127.1516
356.83        126.4728
357.28        126.2318
357.73        126.2602
358.18        126.2779
358.63        125.8471
359.08        124.8756
359.53        123.5416
359.98        122.1059
360.43        120.9301
360.88        120.0967
361.33        119.4858
361.78        118.9372
362.23        118.2068
362.68        117.2429
363.13        116.1532
363.58        115.0468
364.03        114.0731
364.48        113.2646
364.93         112.546
365.38        111.8799
365.83        111.2237
366.28        110.5543
366.73        109.8969
367.18        109.2027
367.63        108.3862
368.08        107.4425
368.53        106.3974
368.98         105.354
369.43        104.4779
369.88        103.8063
370.33        103.2968
370.78        102.8464
371.23         102.285
371.68        101.5655
372.13        100.7305
372.58         99.8754
373.03        99.15092
373.48        98.58138
373.93        98.10445
374.38        97.60939
374.83        96.93229
375.28        96.04448
375.72        94.99785
376.17        93.95422
376.62        93.03301
377.07        92.28892
377.52        91.71066
377.97        91.24799
378.42        90.83379
378.87        90.43924
379.32        90.03835
379.77        89.72478
380.22        89.63402
380.67        89.74916
381.11        90.05187
381.56        90.19036
382.01        89.69003
382.46        88.52227
382.91        86.92413
383.36        85.38589
383.81        84.57759
384.26        84.59254
384.71        85.19167
385.15        86.02274
385.60        86.46696
386.05        86.32562
386.50        85.78266
386.95        84.97608
387.40        84.13092
387.85        83.36382
388.29        82.57021
388.74        81.90912
389.19        81.39478
389.64        81.01823
390.09         80.7713
390.54        80.60432
390.98        80.40045
391.43        80.16959
391.88        79.92088
392.33        79.65984
392.78        79.39375
393.23        79.12586
393.67        78.82955
394.12         78.5909
394.57        78.34126
395.02        78.09995
395.47        77.94936
395.91        77.86232
396.36        77.68021
396.81        77.40871
397.26        77.11479
397.71        76.83312
398.15        76.56292
398.60         76.3981
399.05        76.24648
399.50        76.07218
399.95        75.94301
400.39        75.83245
400.84        75.39596
401.29        74.75514
401.74        74.58098
402.18        74.78754
402.63        74.47079
403.08        73.75407
403.53        73.50561
403.97         73.7466
404.42        74.00143
404.87        74.13206
405.32        74.09831
405.76        73.85204
406.21        73.49926
406.66        73.10157
407.11        72.70228
407.55        72.43589
408.00        72.34292
408.45        72.41375
408.90        72.76118
409.34        73.12164
409.79        72.71383
410.24        71.77946
410.68        71.38799
411.13        71.61694
411.58        71.87514
412.03        71.98737
412.47        71.93639
412.92        71.65034
413.37        71.18362
413.81        70.69616
414.26        70.48367
414.71        70.56985
415.15        70.89962
415.60        71.30528
416.05        71.56679
416.49        71.61154
416.94        71.49978
417.39        71.32202
417.83        71.20427
418.28         71.1896
418.73         71.2242
419.17        71.28847
419.62        71.36143
420.07        71.42008
420.51        71.45747
420.96        71.47615
421.41        71.41293
421.85        71.24743
422.30        71.08266
422.74        70.88397
423.19        70.69878
423.64        70.51153
424.08         70.3437
424.53        70.24397
424.98        70.28548
425.42        70.46957
425.87        70.89452
426.31        71.36684
426.76        71.16079
427.21        70.42078
427.65        70.14651
428.10        70.34798
428.54        70.37543
428.99        70.28445
429.44         70.1412
429.88        70.09639
430.33        70.84214
430.77        71.95013
431.22        72.24776
431.66        71.72195
432.11         71.0903
432.56        70.64567
433.00        70.67918
433.45        71.28242
433.89        71.78009
434.34        71.96328
434.78        72.61389
435.23        71.91958
435.67        69.92542
436.12        70.41016
436.57        70.65989
437.01        71.59588
437.46        71.99565
437.90        71.82116
438.35        71.35945
438.79        71.43436
439.24        71.36074
439.68        71.35906
440.13        71.44982
440.57        71.67108
441.02        71.87725
441.46        72.01968
441.91        72.57472
442.35        73.20704
442.80        72.96143
443.24        72.05927
443.69        72.02436
444.13        72.78791
444.58        73.09698
445.02        72.91415
445.47        72.92084
445.91        73.24518
446.36        73.46206
446.80         73.5752
447.24        73.70744
447.69         73.8362
448.13        73.81838
448.58        73.70741
449.02        73.67289
449.47        73.73098
449.91        73.71998
450.36        73.66405
450.80        73.64152
451.25         73.6736
451.69        73.68449
452.13        73.68343
452.58        73.67818
453.02        73.67096
453.47        73.67467
453.91        73.68155
454.36         73.6933
454.80        73.66943
455.24        73.51528
455.69        73.23615
456.13        72.92503
456.58        72.69257
457.02        72.33188
457.46        72.01762
457.91        72.31255
458.35        72.91338
458.79        72.88951
459.24        72.25569
459.68        71.36534
460.13        70.54099
460.57         70.2476
461.01        70.66383
461.46        70.57249
461.90        71.42474
462.34        72.15794
462.79        72.19386
463.23        72.25675
463.68        72.05933
464.12         71.9043
464.56        71.69439
465.01        70.94702
465.45        69.90564
465.89        69.56842
466.34        69.82883
466.78        70.02726
467.22        70.19855
467.67        69.50929
468.11        70.23358
468.55        70.21924
468.99        70.11943
469.44        69.97676
469.88        69.82668
470.32        69.62357
470.77        69.40173
471.21        69.28632
471.65        69.27921
472.10        69.35448
472.54        69.46619
472.98        69.49535
473.42         69.3991
473.87         69.3914
474.31        69.39084
474.75        68.94302
475.20         68.2739
475.64        68.27324
476.08        68.84656
476.52        68.94359
476.97        68.46683
477.41        68.22801
477.85         68.4801
478.29        67.79771
478.74        68.42652
479.18        69.15256
479.62        68.57385
480.06        68.59026
480.50        68.55521
480.95        68.54919
481.39        68.59699
481.83        67.94965
482.27        67.92355
482.72        68.38751
483.16        67.97231
483.60          68.092
484.04        68.19302
484.48        68.48207
484.93        68.70072
485.37        68.58825
485.81        67.40738
486.25        67.66563
486.69        68.78794
487.14        69.80158
487.58        67.88966
488.02          68.297
488.46        67.47522
488.90        67.75547
489.34        68.70784
489.79        69.34753
490.23        69.13317
490.67        68.50469
491.11        67.67348
491.55        67.49514
491.99        67.90563
492.43        67.89014
492.88        67.43512
493.32        67.27451
493.76        67.43889
494.20        67.56767
494.64         67.6339
495.08        67.75971
495.52         67.8845
495.96        67.87186
496.41        67.72815
496.85        67.57326
497.29        67.36932
497.73        67.40971
498.17        66.86456
498.61        66.90999
499.05        67.04559
499.49         67.2313
499.93        67.13509
500.37        67.18346
500.82        67.33517
501.26         67.4185
501.70        67.39921
502.14        67.54887
502.58        67.94172
503.02        67.42116
503.46        67.98118
503.90        68.02029
504.34        68.07219
504.78        67.99314
505.22         67.7879
505.66        67.45679
506.10        67.09817
506.54        66.91727
506.98        66.90931
507.42        67.01175
507.86        67.20253
508.30        66.95848
508.74        67.19092
509.18        67.11687
509.62        67.03901
510.06        66.95869
510.50        66.91808
510.94        66.98928
511.38        67.12049
511.82        67.16083
512.26        67.09372
512.70        67.00772
513.14        66.93911
513.58        66.91148
514.02        66.93826
514.46        67.00546
514.90        67.09579
515.34        67.18375
515.78        67.25254
516.22        67.30215
516.66        67.31992
517.10        67.28619
517.54        67.20383
517.98        67.08861
518.42        66.95655
518.86        66.83475
519.30         66.7384
519.74        66.66203
520.18        66.63223
520.62        66.68586
521.06        66.82139
521.50         67.0276
521.93         67.2422
522.37        67.34095
522.81        67.30643
523.25        67.16793
523.69        67.00299
524.13        66.93822
524.57        66.99737
525.01        67.13226
525.45        67.27728
525.89        67.32553
526.32        67.24236
526.76        67.09009
527.20        66.89445
527.64        66.69966
528.08        66.53061
528.52        66.37269
528.96        66.26228
529.40        66.25686
529.83        66.35477
530.27        66.54697
530.71        66.75098
531.15        66.83847
531.59        66.78279
532.03        66.61725
532.46        66.41257
532.90        66.33087
533.34        66.39331
533.78        66.51102
534.22        66.62088
534.66        66.70965
535.09        66.70547
535.53        66.48978
535.97        66.13313
536.41        65.91651
536.85        65.87864
537.28        65.88168
537.72        65.91838
538.16        66.02833
538.60        66.19218
539.04        66.39446
539.47        66.57085
539.91        66.66446
540.35        66.64819
540.79        66.54346
541.22        66.39512
541.66        66.30001
542.10        66.27805
542.54        66.30812
542.97        66.35201
543.41        66.37811
543.85        66.36298
544.29        66.32931
544.72        66.28883
545.16        66.26266
545.60        66.23866
546.04        66.29078
546.47        66.41587
546.91        66.29999
547.35        66.31724
547.79        66.40128
548.22        66.60426
548.66        66.65657
549.10        66.61839
549.53        66.58243
549.97        66.57201
550.41        66.43875
550.84        66.26659
551.28        66.24339
551.72        66.30935
552.15        66.42123
552.59        66.64874
553.03        66.03288
553.46        66.56317
553.90        66.51015
554.34        66.45183
554.77        66.38216
555.21         66.3543
555.65        66.39423
556.08         66.4755
556.52        66.57639
556.96        66.63338
557.39        66.66092
557.83         66.6294
558.27        66.34222
558.70        65.89481
559.14        65.70018
559.57        65.74693
560.01        65.77088
560.45        65.75765
560.88          65.834
561.32        66.01452
561.75        66.22926
562.19        66.43397
562.63         66.4612
563.06        66.33172
563.50        66.26207
563.93        66.22984
564.37        66.23798
564.80        66.30598
565.24        66.26873
565.68        65.97941
566.11        66.67391
566.55        65.95469
566.98        65.75473
567.42        65.53185
567.85        65.58485
568.29         65.9028
568.72        66.26433
569.16        66.67502
569.60        66.80779
570.03        66.85478
570.47        66.96387
570.90        67.28663
571.34        66.36121
571.77        66.97969
572.21        67.16594
572.64        67.13443
573.08        67.66759
573.51        66.89259
573.95         66.7792
574.38        67.02885
574.82        67.03987
