SpectraSmart Spectrum 2.9.0.0
--------- Device Information -----------
Spectrum Name :  反射率_0
Saving Time :  2024/04/26 23:58:37
Spectro-Module Model Name : SE2030-DUVN
Spectro-Module Serial Number : OS361AC55029948
Wavelength Start : 200
Wavelength End : 1025
Wavelength Unit : Wavelength(nm)
Spectrum Unit : Reflectance(%)
-----------Spectrum Setting ------------
Integration Time : 20ms
Average : 10
Boxcar : 0
Background removal :  enabled
linearity correction :  enabled
SC :  disabled
Intensity correction :  disabled
DWT denoise :  enabled
savitzky-golay :  disabled
FFT :  disabled
Running average :  disabled
Kalman :  disabled
High pass :  disabled
---------------BEGIN--------------------
Wavelength(nm)             Reflectance(%)
200.29               0
200.75        36.06134
201.21        36.35838
201.67        36.75224
202.13         35.8664
202.58        33.37926
203.04        29.89818
203.50        26.13582
203.96        24.51384
204.42        26.81919
204.88        32.42762
205.34        39.91806
205.80        46.30539
206.26        49.83506
206.72        50.79467
207.18        49.73351
207.64        47.08947
208.10        42.88633
208.55        36.57759
209.01        27.73425
209.47        21.56154
209.93        22.22119
210.39        26.85637
210.85          32.065
211.31        36.97074
211.77        43.10025
212.23        54.36505
212.69        80.65337
213.14         125.279
213.60        124.2885
214.06        93.80035
214.52        72.11751
214.98        60.79221
215.44        53.85424
215.90        47.47134
216.36        42.96353
216.81        43.15742
217.27        49.35678
217.73        63.73693
218.19        82.81089
218.65        86.33547
219.11        69.28083
219.57        46.58732
220.02        31.30536
220.48        28.33038
220.94        35.83477
221.40        54.12288
221.86         82.0967
222.32        100.1174
222.77        92.10905
223.23        71.18079
223.69        51.74314
224.15        41.97254
224.61        39.81598
225.06        40.64913
225.52        42.68237
225.98        44.28432
226.44        45.09265
226.90        45.98826
227.36        46.32921
227.81        44.86706
228.27        41.93925
228.73        38.06359
229.19        34.91665
229.65        34.46175
230.10        36.65233
230.56        40.76295
231.02        45.16714
231.48        47.17565
231.93        46.27085
232.39        43.79276
232.85        41.14075
233.31        40.15194
233.77        41.07667
234.22        43.23574
234.68        45.92326
235.14        48.20484
235.60        49.73347
236.05         50.8834
236.51        51.66188
236.97        52.03384
237.43        52.05799
237.88        51.70215
238.34         51.2634
238.80        51.58532
239.26        53.08731
239.71        56.27958
240.17        61.01025
240.63        66.54392
241.08        72.20146
241.54        77.20761
242.00        82.48891
242.46        90.93591
242.91        105.4828
243.37        128.1356
243.83        159.0435
244.28        183.6101
244.74        180.8167
245.20        151.6061
245.66        117.6469
246.11         97.2976
246.57        90.70956
247.03         92.3222
247.48        96.28777
247.94        93.44752
248.40        84.66256
248.85        75.44914
249.31        68.60072
249.77        64.63941
250.22        62.73791
250.68        61.67464
251.14         61.8121
251.59         64.2398
252.05        68.84506
252.51        74.93882
252.96        79.22641
253.42        79.47022
253.88        76.48046
254.33        71.35297
254.79        67.93265
255.25        69.26476
255.70        74.84567
256.16        83.34157
256.62        90.68927
257.07        90.86976
257.53        85.56689
257.99        78.54383
258.44        72.80386
258.90         71.0779
259.35        72.03651
259.81        74.54633
260.27        76.84221
260.72        76.86572
261.18        74.91386
261.63        71.74712
262.09        68.80441
262.55        66.93586
263.00        66.02266
263.46        65.78897
263.91        65.46893
264.37        64.50907
264.83        62.84836
265.28        60.77763
265.74         58.9519
266.19        57.81227
266.65        57.45845
267.11        57.54406
267.56        57.69984
268.02        57.37223
268.47        56.41608
268.93        55.08108
269.38        53.52121
269.84        52.03242
270.30        50.71109
270.75        49.45977
271.21        48.38883
271.66        47.59795
272.12        47.07528
272.57        46.76158
273.03        46.45346
273.48         45.7935
273.94         44.7821
274.39        43.51116
274.85        42.24934
275.31        41.21782
275.76        40.44419
276.22        39.88202
276.67        39.42655
277.13        39.04298
277.58        38.63107
278.04        38.22676
278.49        37.73556
278.95        37.14743
279.40        36.41461
279.86        35.64178
280.31        34.79947
280.77        33.97137
281.22        33.15301
281.68        32.40982
282.13        31.78309
282.59        31.41961
283.04        31.28443
283.50        31.35369
283.95        31.49584
284.41        31.51422
284.86        31.35911
285.32        31.11733
285.77        30.87105
286.22        30.81365
286.68         30.9709
287.13        31.22206
287.59        31.50399
288.04        31.67336
288.50        31.71096
288.95        31.63577
289.41         31.4748
289.86         31.1861
290.32        30.84126
290.77        30.46507
291.22        30.17204
291.68        30.11072
292.13        30.31304
292.59        30.77267
293.04        31.45349
293.50        32.30724
293.95        33.28783
294.40        34.39676
294.86         35.6077
295.31        36.86933
295.77         38.1753
296.22        39.51652
296.68        40.89878
297.13        42.32471
297.58        43.81301
298.04        45.36116
298.49        47.00601
298.95         48.8249
299.40        50.79736
299.85         52.8919
300.31        55.00917
300.76        56.97092
301.21        58.75719
301.67        60.44458
302.12        62.09483
302.58        63.90096
303.03        65.85242
303.48        67.91154
303.94        70.04707
304.39        72.14006
304.84        74.18724
305.30        76.23285
305.75        78.22205
306.20        80.16514
306.66        82.07905
307.11        83.91502
307.57        85.70644
308.02        87.39352
308.47        88.99785
308.93        90.53366
309.38        92.01378
309.83        93.58253
310.29        95.26083
310.74        97.00271
311.19        98.66206
311.65        99.96854
312.10        100.8469
312.55        101.3771
313.00        101.7855
313.46        102.4309
313.91        103.3715
314.36        104.5343
314.82        105.7188
315.27        106.6118
315.72        107.1099
316.18        107.3437
316.63        107.4514
317.08        107.7001
317.53        108.1663
317.99        108.7555
318.44        109.3849
318.89        109.8905
319.35        110.2178
319.80        110.4281
320.25        110.5838
320.70        110.7804
321.16        111.0477
321.61        111.4001
322.06        111.7741
322.51        112.0823
322.97         112.286
323.42        112.4039
323.87        112.5626
324.32         112.991
324.78        113.6817
325.23        114.6518
325.68        115.5489
326.13        115.8019
326.59        115.3012
327.04        114.2573
327.49        113.1625
327.94         112.825
328.39        113.4331
328.85         114.724
329.30        116.3488
329.75        117.3902
330.20        117.5466
330.66        117.0407
331.11        116.3161
331.56        116.0088
332.01        116.3234
332.46        117.0484
332.92        117.8715
333.37        118.4483
333.82        118.5906
334.27        118.4812
334.72        118.3188
335.17        118.3937
335.63        118.7921
336.08        119.4696
336.53        120.3218
336.98        121.2394
337.43        122.1543
337.88        123.0602
338.34        123.9233
338.79        124.8211
339.24        125.6765
339.69        126.4527
340.14        127.0083
340.59        127.1441
341.05        126.8954
341.50        126.3681
341.95        125.8458
342.40        125.7441
342.85        126.1723
343.30        127.0123
343.75        128.0911
344.20        129.1071
344.66        129.9269
345.11         130.592
345.56        131.0911
346.01        131.4236
346.46        131.6185
346.91        131.6876
347.36        131.6556
347.81        131.5878
348.26        131.5142
348.72        131.4181
349.17         131.396
349.62        131.6283
350.07        132.1134
350.52        132.8083
350.97         133.395
351.42        133.3621
351.87        132.6368
352.32         131.396
352.77        130.0964
353.22          129.41
353.67        129.4715
354.13        130.0796
354.58        130.8493
355.03        131.0883
355.48        130.6127
355.93        129.6362
356.38        128.5466
356.83        127.9235
357.28        127.8728
357.73        128.1629
358.18        128.4447
358.63        128.1768
359.08        127.2293
359.53        125.8184
359.98        124.2118
360.43        122.7794
360.88        121.6311
361.33        120.6584
361.78        119.7782
362.23        118.8697
362.68        117.9043
363.13        116.9526
363.58        116.0423
364.03        115.1884
364.48        114.3826
364.93        113.5837
365.38        112.7857
365.83        112.0029
366.28         111.237
366.73        110.4948
367.18        109.7327
367.63        108.8765
368.08        107.9205
368.53        106.8916
368.98        105.8813
369.43         105.031
369.88        104.3691
370.33        103.8561
370.78         103.388
371.23        102.7959
371.68        102.0364
372.13        101.1539
372.58        100.2527
373.03        99.49883
373.48        98.92074
373.93        98.45219
374.38        97.97858
374.83        97.32905
375.28        96.46756
375.72        95.44234
376.17        94.40885
376.62        93.47641
377.07        92.70064
377.52        92.08001
377.97         91.5649
378.42        91.09032
378.87        90.63478
379.32        90.17153
379.77         89.8196
380.22        89.75284
380.67        89.95155
381.11        90.37749
381.56        90.62764
382.01        90.13908
382.46        88.86349
382.91        87.07579
383.36        85.31081
383.81        84.29592
384.26        84.14654
384.71        84.61556
385.15        85.36347
385.60        85.79116
386.05        85.69999
386.50        85.26508
386.95        84.60117
387.40         83.8943
387.85        83.24085
388.29        82.53398
388.74        81.92662
389.19        81.43106
389.64         81.0416
390.09        80.75156
390.54        80.52061
390.98        80.24993
391.43         79.9565
391.88        79.65063
392.33        79.34326
392.78        79.02592
393.23        78.69906
393.67         78.3892
394.12        78.17541
394.57        77.82108
395.02        77.49429
395.47        77.36026
395.91        77.42432
396.36        77.21938
396.81        77.00701
397.26        76.72467
397.71         76.4613
398.15        76.20525
398.60        76.03947
399.05        75.72241
399.50        75.31171
399.95         75.2622
400.39        75.47688
400.84        75.10205
401.29         74.2486
401.74        73.99054
402.18        74.25179
402.63        73.88706
403.08        73.02712
403.53        72.67241
403.97        72.84787
404.42        73.04507
404.87        73.13615
405.32        73.03621
405.76        72.68528
406.21        72.37788
406.66        72.13756
407.11        71.52489
407.55        70.84428
408.00        71.11833
408.45        72.18798
408.90        72.86556
409.34        72.83693
409.79        72.27982
410.24        71.46037
410.68         70.9609
411.13         70.8806
411.58        70.84936
412.03         70.7725
412.47        70.68665
412.92        70.54205
413.37         70.3681
413.81        70.19778
414.26        70.14446
414.71        70.19795
415.15        70.34551
415.60        70.52077
416.05        70.69542
416.49        70.84866
416.94        70.97149
417.39        71.06499
417.83        71.11612
418.28        71.13527
418.73         71.1321
419.17        71.11801
419.62        71.11633
420.07        71.12145
420.51        71.09757
420.96        71.10007
421.41        71.10678
421.85        71.08202
422.30        71.24011
422.74        71.40665
423.19        71.11648
423.64        70.48065
424.08        70.28639
424.53        70.56542
424.98        70.74655
425.42        70.81549
425.87        71.18035
426.31        71.70709
426.76        71.77836
427.21        71.44331
427.65         71.2289
428.10        71.17784
428.54        71.14987
428.99        71.21098
429.44        71.10155
429.88        70.98824
430.33        71.74218
430.77        72.93027
431.22         73.3285
431.66        72.85945
432.11        72.16862
432.56        71.58408
433.00        71.40224
433.45        71.85941
433.89        72.80988
434.34        73.40411
434.78        74.48949
435.23        73.55185
435.67        70.86996
436.12        71.61575
436.57        71.90427
437.01        72.94862
437.46        73.54799
437.90        73.10345
438.35        72.07246
438.79        72.19224
439.24        72.03848
439.68        72.11406
440.13        72.54456
440.57        73.24623
441.02        73.42469
441.46        73.11887
441.91        73.81137
442.35        75.01857
442.80        74.61185
443.24        73.01715
443.69        73.11977
444.13        74.72863
444.58        75.35785
445.02        74.91157
445.47        74.78204
445.91        75.03095
446.36        75.16098
446.80        75.16909
447.24        75.18185
447.69        75.22545
448.13        75.32255
448.58        75.48972
449.02         75.6751
449.47        75.83834
449.91        75.89449
450.36        75.84882
450.80        75.69477
451.25        75.52429
451.69        75.42933
452.13        75.45842
452.58        75.56488
453.02         75.6901
453.47        75.79513
453.91        75.84631
454.36        75.68261
454.80        75.65016
455.24         75.4529
455.69        75.19544
456.13        75.10679
456.58        75.16657
457.02        74.58017
457.46        73.69336
457.91        73.99264
458.35        75.11006
458.79         75.2638
459.24        74.43152
459.68        73.48435
460.13        72.75452
460.57        72.40729
461.01         72.5977
461.46        72.65639
461.90        73.15041
462.34        73.93253
462.79        73.59555
463.23        73.85693
463.68        74.10583
464.12        74.04691
464.56        73.63908
465.01        72.68797
465.45        71.89986
465.89        71.69881
466.34        72.08976
466.78        72.28268
467.22        72.18483
467.67        71.86956
468.11        71.56194
468.55        71.63934
468.99        72.03207
469.44        72.06419
469.88        71.71557
470.32        71.42542
470.77        71.26534
471.21        71.13609
471.65        71.04214
472.10        71.01193
472.54         71.0296
472.98        71.01646
473.42        70.93597
473.87        71.00936
474.31        71.10496
474.75        70.63406
475.20        69.84054
475.64        69.77644
476.08        70.36781
476.52        70.44682
476.97        69.93294
477.41        69.72865
477.85        70.07532
478.29        69.27039
478.74        70.26384
479.18        70.51463
479.62          70.278
480.06        70.24482
480.50        70.22685
480.95        70.20614
481.39        70.18551
481.83        69.66221
482.27        69.74892
482.72        69.85141
483.16        69.72942
483.60        69.81525
484.04        69.91966
484.48        70.31313
484.93        70.73229
485.37        70.31029
485.81        69.73984
486.25        69.29823
486.69        71.48093
487.14        72.40504
487.58        69.50744
488.02        70.34222
488.46        69.26421
488.90        68.54366
489.34        70.28739
489.79        71.11346
490.23        70.62852
490.67        70.03427
491.11        69.32565
491.55        69.15933
491.99        69.45075
492.43          69.357
492.88        68.88159
493.32        68.70998
493.76        68.87673
494.20        68.98759
494.64        68.99838
495.08        69.15919
495.52        69.39567
495.96         69.2233
496.41        68.76737
496.85        68.90161
497.29        69.39225
497.73        69.48681
498.17        68.38992
498.61        68.20579
499.05        68.66629
499.49        68.81181
499.93        68.38728
500.37        68.48675
500.82        68.98501
501.26        69.02441
501.70        68.57537
502.14        68.96925
502.58        68.82331
503.02         68.9625
503.46        69.04234
503.90        69.18695
504.34         69.3361
504.78        69.30722
505.22        69.09438
505.66        68.75137
506.10        68.40649
506.54        68.21227
506.98        68.19913
507.42        68.42159
507.86        68.72468
508.30        68.66188
508.74         68.7589
509.18        68.59514
509.62        68.39821
510.06        68.23677
510.50        68.14635
510.94        68.08692
511.38        68.05991
511.82        68.08816
512.26        68.16677
512.70        68.29431
513.14        68.40789
513.58        68.46183
514.02        68.45249
514.46        68.27984
514.90        67.98419
515.34        68.24761
515.78        68.12167
516.22        68.34382
516.66        68.55139
517.10        68.65009
517.54        68.60335
517.98        68.46233
518.42        68.28612
518.86        68.14154
519.30        68.05836
519.74        68.01501
520.18        68.00171
520.62         68.0026
521.06        68.01253
521.50        68.04665
521.93        68.10074
522.37          68.142
522.81        68.17169
523.25        68.18364
523.69        68.19964
524.13        68.26031
524.57        68.36404
525.01        68.48872
525.45        68.58467
525.89        68.57339
526.32        68.43437
526.76        68.21795
527.20        67.96807
527.64        67.75919
528.08        67.61884
528.52        67.52926
528.96        67.49028
529.40        67.49845
529.83        67.54124
530.27        67.62625
530.71        67.71678
531.15        67.75975
531.59        67.74454
532.03        67.67976
532.46        67.58639
532.90        67.54984
533.34        67.57324
533.78        67.59235
534.22        67.58765
534.66        67.61253
535.09         67.6105
535.53        67.44097
535.97        67.13969
536.41        66.93678
536.85        66.85892
537.28        66.78642
537.72        66.74732
538.16        66.82922
538.60        67.02305
539.04        67.31605
539.47        67.60771
539.91        67.73563
540.35        67.68638
540.79        67.61462
541.22         67.5581
541.66        67.50409
542.10        67.46681
542.54        67.47947
542.97        67.52103
543.41        67.55544
543.85        67.56734
544.29        67.59717
544.72        67.60213
545.16        67.54589
545.60        67.41702
546.04         67.2336
546.47        67.08469
546.91        67.10825
547.35         67.3177
547.79        67.66604
548.22        68.01717
548.66        68.14512
549.10        68.08377
549.53        67.86887
549.97        67.60671
550.41        67.32693
550.84        67.15163
551.28        67.21426
551.72        67.40682
552.15        67.59165
552.59        67.80814
553.03        67.19395
553.46        67.70113
553.90        67.57826
554.34        67.45871
554.77        67.46327
555.21        67.27467
555.65        67.45229
556.08        67.77944
556.52         67.8792
556.96        67.73927
557.39        67.78866
557.83        67.98846
558.27        67.81458
558.70        67.31549
559.14        67.07742
559.57        67.10762
560.01         66.9537
560.45        66.71784
560.88        67.00178
561.32        67.65303
561.75        67.91396
562.19          67.767
562.63        67.46478
563.06        67.17553
563.50        67.30776
563.93        67.69996
564.37        67.78796
564.80        67.57484
565.24        67.31436
565.68        66.93359
566.11          67.574
566.55        66.82813
566.98        66.71526
567.42        66.64655
567.85        66.82524
568.29         67.2261
568.72         67.6719
569.16        68.15279
569.60        68.35101
570.03        68.46227
570.47        68.58205
570.90        68.68016
571.34         68.0891
571.77        68.39533
572.21        68.71101
572.64        68.51014
573.08         68.7851
573.51        68.00671
573.95        67.98225
574.38        68.44348
574.82        68.88168
