SpectraSmart Spectrum 2.9.0.0
--------- Device Information -----------
Spectrum Name :  反射率_0
Saving Time :  2024/04/26 23:49:29
Spectro-Module Model Name : SE2030-DUVN
Spectro-Module Serial Number : OS361AC55029948
Wavelength Start : 200
Wavelength End : 1025
Wavelength Unit : Wavelength(nm)
Spectrum Unit : Reflectance(%)
-----------Spectrum Setting ------------
Integration Time : 20ms
Average : 10
Boxcar : 0
Background removal :  enabled
linearity correction :  enabled
SC :  disabled
Intensity correction :  disabled
DWT denoise :  enabled
savitzky-golay :  disabled
FFT :  disabled
Running average :  disabled
Kalman :  disabled
High pass :  disabled
---------------BEGIN--------------------
Wavelength(nm)             Reflectance(%)
200.29               0
200.75        57.94933
201.21        52.19866
201.67        47.30754
202.13        45.04994
202.58        45.29788
203.04        47.91978
203.50        52.19706
203.96        55.18271
204.42        54.78774
204.88        51.19917
205.34        46.28411
205.80        44.08347
206.26        45.39582
206.72          48.313
207.18        50.81437
207.64        51.07912
208.10        48.96808
208.55        45.22739
209.01        39.51757
209.47        35.30823
209.93        35.64897
210.39        38.34811
210.85        42.13264
211.31        47.73662
211.77        57.37895
212.23        77.74853
212.69        126.5698
213.14        204.0386
213.60         193.251
214.06        132.3548
214.52        93.19006
214.98        76.45031
215.44        70.17456
215.90        67.73309
216.36        67.79015
216.81        69.37672
217.27        72.37306
217.73        78.71707
218.19        87.32428
218.65        89.63085
219.11        83.36251
219.57        74.24168
220.02        67.84342
220.48        67.24447
220.94         71.4577
221.40         80.2305
221.86        93.17728
222.32        101.5696
222.77        97.52237
223.23         87.5102
223.69        76.47261
224.15        66.66719
224.61        58.39348
225.06        51.00431
225.52        45.82561
225.98        43.99107
226.44        45.01232
226.90        48.11226
227.36        51.53992
227.81        52.34494
228.27         50.1913
228.73        46.24858
229.19        42.40977
229.65        40.76876
230.10        41.44302
230.56        43.69032
231.02        46.21656
231.48        47.02867
231.93         45.7502
232.39        43.42499
232.85        41.23535
233.31        40.71953
233.77        41.99577
234.22        44.49243
234.68           47.23
235.14        48.79856
235.60        48.79809
236.05        47.67634
236.51        46.02059
236.97         45.1007
237.43        45.49543
237.88        46.89016
238.34        48.93811
238.80        51.34815
239.26        54.11091
239.71        57.93906
240.17        62.56019
240.63        67.13608
241.08        71.00069
241.54        73.24028
242.00        75.11811
242.46        80.06691
242.91        90.99441
243.37        109.8446
243.83        137.5889
244.28         162.618
244.74         166.384
245.20        147.7106
245.66        122.9394
246.11        107.4293
246.57        102.3198
247.03        103.4549
247.48        105.6378
247.94        101.2056
248.40        91.74232
248.85         82.0215
249.31        75.66161
249.77        74.15173
250.22        76.84156
250.68        83.06813
251.14        91.35765
251.59        95.79017
252.05        93.23564
252.51        86.95892
252.96        79.75629
253.42        74.66943
253.88        71.78165
254.33         69.5942
254.79        69.27477
255.25        71.39551
255.70        75.34542
256.16        80.78086
256.62        84.89188
257.07         83.6318
257.53        78.65858
257.99        72.60336
258.44        67.61102
258.90        65.76799
259.35        65.93785
259.81        67.36777
260.27        68.67366
260.72        68.28551
261.18        66.46825
261.63        63.70628
262.09        61.21418
262.55         59.6957
263.00        59.00644
263.46        58.92562
263.91        58.66113
264.37        57.56517
264.83         55.6268
265.28        53.20166
265.74        51.06869
266.19        49.86937
266.65        49.71398
267.11        50.21169
267.56        50.87439
268.02        50.94386
268.47        50.21524
268.93        48.97221
269.38        47.48028
269.84        46.20627
270.30        45.26567
270.75        44.48576
271.21        43.81992
271.66        43.14654
272.12        42.42607
272.57         41.7019
273.03        40.93862
273.48        40.04762
273.94        39.08803
274.39        38.05382
274.85        37.10725
275.31        36.33464
275.76        35.72565
276.22         35.2862
276.67        34.90291
277.13        34.50616
277.58        34.02315
278.04        33.49952
278.49        32.93786
278.95        32.46576
279.40        32.04389
279.86        31.69888
280.31        31.30145
280.77        30.77864
281.22        30.09843
281.68        29.37755
282.13        28.69958
282.59         28.2595
283.04        28.04916
283.50         28.0234
283.95        28.08343
284.41        28.08586
284.86        27.98445
285.32         27.8483
285.77          27.704
286.22        27.65137
286.68        27.70823
287.13        27.79851
287.59        27.90922
288.04        27.98134
288.50        28.01487
288.95        27.99652
289.41        27.94099
289.86        27.79728
290.32        27.61457
290.77        27.41799
291.22        27.26976
291.68        27.24374
292.13        27.36186
292.59         27.6316
293.04        28.08406
293.50        28.77924
293.95         29.6995
294.40        30.82424
294.86        32.05384
295.31        33.22157
295.77        34.29881
296.22        35.31384
296.68        36.36908
297.13        37.61625
297.58        39.09972
298.04        40.77171
298.49         42.5512
298.95         44.3264
299.40        46.04827
299.85        47.75727
300.31        49.48506
300.76        51.26059
301.21        53.09536
301.67        54.96961
302.12        56.84719
302.58        58.76722
303.03        60.67842
303.48        62.60767
303.94        64.52602
304.39        66.31899
304.84        68.01623
305.30        69.67281
305.75        71.34369
306.20        73.20256
306.66        75.27869
307.11        77.46084
307.57        79.65162
308.02        81.59699
308.47        83.26342
308.93        84.72099
309.38        86.04052
309.83        87.45302
310.29        89.01337
310.74        90.64829
311.19        92.22266
311.65        93.48899
312.10        94.37393
312.55        94.96085
313.00        95.44355
313.46        96.12344
313.91        97.04792
314.36        98.15411
314.82        99.26953
315.27        100.1302
315.72        100.6438
316.18          100.92
316.63        101.0733
317.08        101.3316
317.53        101.7639
317.99         102.296
318.44        102.8575
318.89        103.3049
319.35         103.594
319.80        103.7764
320.25        103.9282
320.70        104.1671
321.16        104.5204
321.61        104.9932
322.06         105.483
322.51         105.835
322.97        106.0009
323.42        106.0253
323.87        106.0758
324.32        106.4505
324.78        107.1622
325.23        108.1908
325.68        109.1867
326.13         109.577
326.59        109.2351
327.04         108.378
327.49        107.4178
327.94        107.0357
328.39        107.4045
328.85        108.2884
329.30        109.4864
329.75        110.3679
330.20        110.7108
330.66        110.6705
331.11        110.4787
331.56        110.4294
332.01        110.6357
332.46        110.9676
332.92        111.3148
333.37        111.6814
333.82         111.981
334.27        112.2901
334.72         112.594
335.17         112.834
335.63        113.0108
336.08        113.1997
336.53        113.4999
336.98        114.1278
337.43        115.1126
337.88        116.3467
338.34        117.6581
338.79        118.8815
339.24        119.8555
339.69        120.6157
340.14        121.0848
340.59        121.1656
341.05        120.9287
341.50        120.4347
341.95        119.9469
342.40        119.8649
342.85        120.2862
343.30        121.1025
343.75        122.1479
344.20        123.1202
344.66        123.8946
345.11        124.5333
345.56        125.0065
346.01        125.2829
346.46        125.4002
346.91        125.3793
347.36        125.3324
347.81        125.4615
348.26        125.7988
348.72        126.2609
349.17        126.7985
349.62        127.3596
350.07        127.8919
350.52        128.4361
350.97        128.7764
351.42        128.5737
351.87        127.8201
352.32        126.6362
352.77        125.4878
353.22        125.0625
353.67        125.4752
354.13        126.5251
354.58        127.7214
355.03        128.1854
355.48        127.6914
355.93        126.5023
356.38        125.1373
356.83        124.3841
357.28        124.4035
357.73        124.9165
358.18        125.4819
358.63        125.3995
359.08        124.4974
359.53        123.0428
359.98        121.3959
360.43        120.0637
360.88        119.1779
361.33        118.5746
361.78        118.0665
362.23        117.3704
362.68        116.4238
363.13        115.3597
363.58        114.3033
364.03        113.4201
364.48        112.7416
364.93        112.1731
365.38        111.6569
365.83         111.123
366.28        110.5364
366.73        109.9307
367.18        109.2592
367.63        108.4373
368.08        107.4755
368.53         106.415
368.98        105.3781
369.43        104.5633
369.88         104.007
370.33        103.6321
370.78         103.346
371.23        102.9924
371.68        102.5073
372.13        101.9369
372.58        101.2521
373.03        100.4087
373.48         99.4223
373.93        98.30203
374.38        97.18549
374.83        96.30646
375.28         95.7113
375.72          95.316
376.17        95.01386
376.62        94.51611
377.07        93.77682
377.52        92.90573
377.97        92.02429
378.42        91.34686
378.87        90.93239
379.32        90.66756
379.77        90.53774
380.22        90.52608
380.67        90.57921
381.11        90.73181
381.56        90.72682
382.01         90.2411
382.46         89.2682
382.91        87.97139
383.36        86.71059
383.81        85.97949
384.26        85.84858
384.71        86.15285
385.15        86.64787
385.60        86.89302
386.05        86.75101
386.50        86.34839
386.95        85.78055
387.40        85.20537
387.85        84.69344
388.29        84.13977
388.74        83.67358
389.19        83.26704
389.64        82.90842
390.09        82.60106
390.54        82.31274
390.98        81.96279
391.43        81.59009
391.88        81.21338
392.33        80.86203
392.78        80.56525
393.23        80.32101
393.67        80.10268
394.12        79.97662
394.57        79.79581
395.02        79.58794
395.47        79.54871
395.91        79.59375
396.36        79.37521
396.81        78.89185
397.26        78.31596
397.71        77.79483
398.15        77.42702
398.60        77.31243
399.05        77.40913
399.50        77.58124
399.95        77.47709
400.39        77.14055
400.84        76.95634
401.29        76.90929
401.74         76.6293
402.18        76.12263
402.63        75.57014
403.08        75.12638
403.53        74.90185
403.97        74.91864
404.42        75.14587
404.87        75.40131
405.32        75.38651
405.76         75.0367
406.21        74.48042
406.66        73.88413
407.11        73.53768
407.55        73.54031
408.00        73.71862
408.45        73.98432
408.90        74.29544
409.34        74.48425
409.79        74.25597
410.24        73.75473
410.68        73.47094
411.13         73.4658
411.58        73.48752
412.03        73.42932
412.47        73.23309
412.92        72.86231
413.37        72.39172
413.81        71.95589
414.26         71.8058
414.71        71.95119
415.15        72.34988
415.60        72.82336
416.05        73.13546
416.49        73.20764
416.94        73.09248
417.39         72.9074
417.83         72.8246
418.28        72.89829
418.73        73.07034
419.17        73.27264
419.62        73.40405
420.07          73.419
420.51        73.32668
420.96        73.21146
421.41         73.0954
421.85        72.96671
422.30        73.01159
422.74        73.06555
423.19        72.72911
423.64        72.08387
424.08         71.8028
424.53        71.94215
424.98        72.03577
425.42        72.06865
425.87        72.48222
426.31        73.08078
426.76        72.93829
427.21        72.20895
427.65        72.00095
428.10         72.2992
428.54        72.41551
428.99        72.39411
429.44        72.18726
429.88         72.0346
430.33        72.94537
430.77        74.37286
431.22         74.7881
431.66        74.11491
432.11        73.06561
432.56        72.11873
433.00        72.06274
433.45        73.04138
433.89        74.09682
434.34        74.31333
434.78         75.4161
435.23        74.00249
435.67        71.71249
436.12        72.50989
436.57        72.86501
437.01        73.69577
437.46        74.37603
437.90        73.95287
438.35        72.74184
438.79        72.84401
439.24        72.56857
439.68        72.57845
440.13        72.84133
440.57        73.34444
441.02        73.71864
441.46        73.86716
441.91         74.4988
442.35         75.2068
442.80        74.79398
443.24         73.6254
443.69        73.52609
444.13         74.3119
444.58        75.41435
445.02        74.58233
445.47        74.65794
445.91        75.04694
446.36        75.27628
446.80        75.27802
447.24        75.76588
447.69        75.71223
448.13        75.89194
448.58        76.00925
449.02        76.05927
449.47        76.02995
449.91        75.93658
450.36        75.82978
450.80        75.61855
451.25        75.35587
451.69        75.43147
452.13        75.27627
452.58        75.34551
453.02        75.43537
453.47        75.52287
453.91        75.56852
454.36        75.59408
454.80        75.58311
455.24        75.37043
455.69        74.95164
456.13        74.62036
456.58        74.50855
457.02        73.62845
457.46        73.34679
457.91        73.58189
458.35        74.34083
458.79        74.41425
459.24        73.78815
459.68        72.96081
460.13        72.25411
460.57        71.97022
461.01        72.25424
461.46        72.44101
461.90        73.10455
462.34         73.6709
462.79         73.0889
463.23        73.03202
463.68        73.49118
464.12        73.29165
464.56        72.56153
465.01        71.76291
465.45        71.09446
465.89        70.85801
466.34        70.92644
466.78        71.10943
467.22        71.42148
467.67        70.39198
468.11        70.73355
468.55        70.74601
468.99        71.10025
469.44        71.12397
469.88         70.8092
470.32        70.49989
470.77        70.26617
471.21        70.12197
471.65         70.0774
472.10        70.13026
472.54        70.22528
472.98        70.22948
473.42        70.09776
473.87        70.05724
474.31        70.02886
474.75         69.5322
475.20        68.77335
475.64        68.76701
476.08        69.46667
476.52        69.51554
476.97        68.74287
477.41        69.28358
477.85        69.27605
478.29        68.42085
478.74        69.38701
479.18        69.83233
479.62        68.95585
480.06        68.80734
480.50        68.92326
480.95        68.94344
481.39        68.83015
481.83        68.86396
482.27        68.36062
482.72        69.18031
483.16        68.93143
483.60        68.74326
484.04        68.91661
484.48        69.10448
484.93        69.37981
485.37        69.27238
485.81        68.50649
486.25        68.43277
486.69        70.38503
487.14        71.16318
487.58        69.14633
488.02        69.47447
488.46        67.65321
488.90        67.84441
489.34        68.59729
489.79        69.78182
490.23        68.94125
490.67        68.34011
491.11         67.6704
491.55        67.57575
491.99        67.97086
492.43        67.93624
492.88        67.47614
493.32        67.27957
493.76          67.396
494.20        67.50353
494.64        67.58829
495.08        67.74577
495.52        67.89731
495.96        67.96147
496.41         67.9034
496.85        67.62386
497.29        67.17226
497.73        67.21685
498.17        66.91269
498.61        67.04574
499.05        67.27383
499.49        67.37593
499.93        67.11915
500.37        67.22582
500.82        67.63483
501.26        67.41419
501.70        67.59967
502.14        67.47819
502.58        67.41979
503.02        67.42778
503.46        67.51898
503.90         67.6692
504.34        67.80138
504.78        67.79961
505.22        67.62856
505.66        67.41716
506.10        67.25265
506.54        67.03846
506.98        66.75645
507.42        67.22295
507.86        66.95937
508.30        67.02708
508.74        67.00056
509.18        66.92757
509.62        66.81348
510.06        66.68021
510.50        66.55651
510.94        66.42422
511.38        66.32066
511.82         66.3056
512.26        66.38647
512.70         66.5454
513.14        66.73498
513.58        66.87563
514.02        66.94229
514.46        66.95092
514.90        66.92771
515.34        66.92034
515.78        66.94085
516.22        66.96904
516.66        66.98872
517.10        66.97678
517.54        66.92764
517.98        66.85575
518.42        66.76807
518.86        66.67228
519.30        66.57558
519.74        66.47833
520.18         66.3938
520.62        66.33938
521.06        66.32205
521.50        66.34722
521.93        66.40088
522.37        66.43732
522.81        66.45525
523.25        66.45413
523.69        66.47005
524.13        66.56513
524.57        66.73629
525.01        66.94683
525.45        67.12412
525.89        67.15322
526.32        67.00974
526.76        66.76405
527.20        66.46857
527.64        66.22397
528.08        66.06903
528.52        65.93701
528.96        65.86395
529.40        65.98717
529.83        66.25194
530.27        66.45908
530.71        66.53669
531.15        66.54154
531.59        66.46021
532.03        66.21904
532.46        65.90294
532.90        65.74904
533.34        65.78542
533.78        65.90337
534.22        66.02907
534.66        66.12846
535.09        66.12326
535.53        65.90631
535.97        65.54121
536.41        65.29562
536.85        65.20899
537.28        65.14471
537.72        65.12142
538.16        65.22092
538.60           65.43
539.04        65.72128
539.47        65.98962
539.91        66.11375
540.35        66.05564
540.79        65.85735
541.22        65.60819
541.66        65.47604
542.10        65.49598
542.54        65.62128
542.97        65.77432
543.41        65.86171
543.85        65.84437
544.29        65.76622
544.72        65.65758
545.16         65.5835
545.60        65.54579
546.04        65.57932
546.47        65.66658
546.91        65.64899
547.35        65.57298
547.79        65.73434
548.22        66.04932
548.66        66.12888
549.10        66.02158
549.53        65.88581
549.97        65.78236
550.41        65.59205
550.84        65.40378
551.28        65.41221
551.72        65.54236
552.15        65.65011
552.59        65.77843
553.03        65.29904
553.46        65.66254
553.90          65.575
554.34        65.46197
554.77         65.3423
555.21        65.28826
555.65        65.31718
556.08          65.499
556.52         65.7059
556.96        65.87718
557.39        66.01472
557.83        66.06863
558.27        65.79183
558.70        65.28484
559.14        65.06368
559.57        65.13317
560.01        65.08539
560.45        64.96004
560.88        65.19157
561.32        65.69382
561.75        65.91257
562.19        65.83093
562.63        65.71691
563.06        65.62019
563.50        65.51002
563.93        65.37928
564.37        65.39999
564.80        65.56436
565.24         65.5539
565.68          65.221
566.11          65.897
566.55        65.21391
566.98        64.99777
567.42         64.7254
567.85        64.80794
568.29         65.2197
568.72        65.59794
569.16        65.94882
569.60        66.22905
570.03        66.28629
570.47        66.61034
570.90         66.8512
571.34        66.21429
571.77         66.5574
572.21        67.02572
572.64        66.77113
573.08        66.90878
573.51        66.31327
573.95        66.24416
574.38        66.60669
574.82        66.85428
