SpectraSmart Spectrum 2.9.0.0
--------- Device Information -----------
Spectrum Name :  反射率_0
Saving Time :  2024/04/26 23:52:41
Spectro-Module Model Name : SE2030-DUVN
Spectro-Module Serial Number : OS361AC55029948
Wavelength Start : 200
Wavelength End : 1025
Wavelength Unit : Wavelength(nm)
Spectrum Unit : Reflectance(%)
-----------Spectrum Setting ------------
Integration Time : 20ms
Average : 10
Boxcar : 0
Background removal :  enabled
linearity correction :  enabled
SC :  disabled
Intensity correction :  disabled
DWT denoise :  enabled
savitzky-golay :  disabled
FFT :  disabled
Running average :  disabled
Kalman :  disabled
High pass :  disabled
---------------BEGIN--------------------
Wavelength(nm)             Reflectance(%)
200.29               0
200.75        34.79358
201.21        35.13259
201.67        35.97151
202.13        36.32396
202.58         35.9431
203.04        35.34021
203.50        34.67094
203.96        34.34977
204.42        34.80983
204.88        35.83197
205.34        37.55722
205.80         40.2442
206.26        43.23327
206.72         45.6322
207.18        47.17034
207.64        47.84339
208.10        47.91878
208.55        48.25346
209.01        47.45895
209.47        43.67797
209.93        38.52915
210.39        34.10156
210.85        32.51365
211.31        35.14238
211.77        43.32121
212.23        63.54513
212.69         113.358
213.14        188.4815
213.60        170.1679
214.06        104.9423
214.52         66.4068
214.98        53.98259
215.44        54.39516
215.90        60.20052
216.36        67.94694
216.81        72.86118
217.27        73.44382
217.73         72.2286
218.19        67.53911
218.65        57.44948
219.11        47.44525
219.57        40.41424
220.02        38.49133
220.48        43.13976
220.94        54.37447
221.40        74.44273
221.86        103.1927
222.32        122.7215
222.77        116.6543
223.23         96.5211
223.69        75.40034
224.15        60.74276
224.61        51.87895
225.06        45.88454
225.52        42.48548
225.98        41.35671
226.44        41.95932
226.90          44.222
227.36        47.04071
227.81         48.3876
228.27        47.91034
228.73        46.04398
229.19          44.096
229.65         43.6638
230.10        44.80186
230.56        46.99979
231.02         48.9552
231.48        48.67897
231.93        46.00776
232.39         42.1539
232.85        38.63526
233.31         37.3718
233.77        38.50383
234.22        41.35151
234.68        44.71338
235.14        46.81423
235.60        47.10753
236.05        46.05686
236.51        44.36441
236.97        43.53434
237.43         44.2288
237.88        46.12125
238.34        48.54452
238.80        50.66875
239.26         52.3424
239.71        54.22742
240.17        56.78941
240.63        61.36052
241.08        68.59893
241.54        77.53331
242.00        87.76914
242.46        99.66675
242.91        114.9899
243.37        135.3094
243.83        160.7743
244.28        180.4537
244.74        177.6993
245.20        152.9847
245.66        123.8931
246.11        104.8326
246.57         96.2024
247.03        94.14341
247.48         94.7317
247.94        92.00395
248.40        86.36454
248.85        80.75472
249.31        77.07928
249.77        75.73192
250.22        76.16495
250.68        77.63279
251.14        79.69418
251.59        80.89043
252.05        80.59833
252.51        80.08865
252.96        78.66662
253.42        76.13344
253.88        72.87656
254.33        68.90991
254.79        66.97607
255.25        69.11585
255.70        74.70461
256.16        82.73288
256.62        89.32968
257.07         88.8311
257.53        83.08985
257.99          75.781
258.44        69.83291
258.90         67.8828
259.35        68.60322
259.81         70.8593
260.27        72.97187
260.72        72.98674
261.18        71.15757
261.63        68.18873
262.09        65.37381
262.55        63.44233
263.00        62.29293
263.46        61.69604
263.91        61.02129
264.37        59.86264
264.83        58.17865
265.28        56.21487
265.74        54.49015
266.19        53.28983
266.65        52.70252
267.11        52.45063
267.56        52.31562
268.02        51.98185
268.47        51.33875
268.93        50.52301
269.38        49.52035
269.84        48.37199
270.30        47.10969
270.75        45.72049
271.21        44.39454
271.66        43.35672
272.12        42.64837
272.57        42.18549
273.03        41.77855
273.48        41.10128
273.94        40.14339
274.39        38.98407
274.85        37.86328
275.31        36.96625
275.76        36.30653
276.22        35.84517
276.67         35.4445
277.13        35.01095
277.58        34.46537
278.04        33.87545
278.49        33.25092
278.95         32.7216
279.40        32.25805
279.86        31.89376
280.31        31.50579
280.77        31.03356
281.22        30.43764
281.68         29.8123
282.13        29.24215
282.59        28.92964
283.04        28.85704
283.50        28.97719
283.95        29.13761
284.41        29.10983
284.86        28.84845
285.32        28.46977
285.77        28.09403
286.22        27.95245
286.68        28.08493
287.13        28.37028
287.59         28.7344
288.04         29.0179
288.50        29.19078
288.95        29.27021
289.41        29.28428
289.86        29.20294
290.32        29.08169
290.77        28.92049
291.22        28.80474
291.68         28.8464
292.13        29.07217
292.59        29.49845
293.04        30.09515
293.50        30.81943
293.95        31.65122
294.40        32.61183
294.86        33.72792
295.31        35.02953
295.77        36.51351
296.22        38.12432
296.68        39.82219
297.13        41.53615
297.58        43.25442
298.04        45.00409
298.49        46.76846
298.95         48.5462
299.40        50.32743
299.85         52.1046
300.31        53.94035
300.76        55.91072
301.21        58.02169
301.67        60.25483
302.12        62.46124
302.58         64.5059
303.03        66.31957
303.48        67.99382
303.94        69.66194
304.39        71.45065
304.84        73.42496
305.30        75.54209
305.75        77.70293
306.20         79.8523
306.66        81.96756
307.11        84.02304
307.57        86.00466
308.02        87.77098
308.47        89.34142
308.93        90.75793
309.38        92.10616
309.83        93.64953
310.29        95.43921
310.74        97.39528
311.19        99.33285
311.65        100.9124
312.10        102.0237
312.55        102.7553
313.00        103.3299
313.46        104.1056
313.91        105.1427
314.36        106.3668
314.82        107.5738
315.27        108.4523
315.72        108.9063
316.18        109.0745
316.63        109.1261
317.08        109.3723
317.53        109.8971
317.99        110.5962
318.44        111.3452
318.89        111.9103
319.35        112.2174
319.80        112.3424
320.25        112.3921
320.70        112.5346
321.16        112.8186
321.61        113.2434
322.06        113.6957
322.51         114.004
322.97        114.1171
323.42        114.0869
323.87        114.1127
324.32        114.5405
324.78        115.3841
325.23        116.6132
325.68        117.8034
326.13        118.2578
326.59        117.8204
327.04        116.7451
327.49        115.5414
327.94        115.0465
328.39        115.4741
328.85         116.552
329.30        118.0023
329.75        119.0296
330.20        119.3632
330.66        119.2043
331.11        118.8851
331.56        118.8569
332.01         119.266
332.46        119.9168
332.92        120.5978
333.37        121.1557
333.82        121.4464
334.27        121.6061
334.72        121.6681
335.17        121.6513
335.63        121.6006
336.08        121.5773
336.53        121.7273
336.98        122.3452
337.43        123.4663
337.88         124.964
338.34        126.5727
338.79        127.9677
339.24        128.9347
339.69        129.5486
340.14        129.7957
340.59        129.6962
341.05        129.3621
341.50        128.8156
341.95        128.3118
342.40        128.2371
342.85        128.6786
343.30        129.5442
343.75        130.6346
344.20        131.5868
344.66        132.2674
345.11        132.7502
345.56        133.0662
346.01        133.2859
346.46        133.4628
346.91        133.5826
347.36        133.6841
347.81        133.8536
348.26        134.1004
348.72         134.386
349.17        134.7181
349.62        135.1377
350.07        135.6183
350.52        136.1634
350.97        136.5388
351.42        136.3775
351.87        135.6522
352.32        134.4934
352.77        133.3328
353.22        132.8039
353.67        133.0162
354.13        133.7786
354.58         134.666
355.03         134.912
355.48        134.3253
355.93        133.1496
356.38        131.8317
356.83        131.0429
357.28        130.9188
357.73        131.2082
358.18        131.5531
358.63        131.3936
359.08        130.5763
359.53        129.3081
359.98        127.8348
360.43        126.4907
360.88        125.3828
361.33        124.4265
361.78        123.5227
362.23         122.535
362.68        121.4423
363.13        120.3053
363.58        119.2544
364.03        118.4642
364.48        117.9367
364.93        117.5856
365.38         117.197
365.83        116.4442
366.28        115.2726
366.73        113.8094
367.18        112.2808
367.63         111.035
368.08        110.1676
368.53        109.5783
368.98        109.1463
369.43        108.6693
369.88        108.0743
370.33        107.4205
370.78        106.7353
371.23        106.0672
371.68        105.4333
372.13        104.7906
372.58        104.1373
373.03        103.4853
373.48        102.8244
373.93        102.1523
374.38         101.439
374.83        100.6373
375.28        99.75093
375.72         98.7906
376.17        97.85912
376.62        96.98678
377.07        96.20461
377.52        95.52737
377.97        94.94677
378.42        94.46233
378.87        94.06025
379.32        93.68932
379.77        93.39974
380.22        93.26378
380.67         93.2532
381.11        93.37445
381.56        93.31826
382.01        92.69048
382.46        91.48605
382.91        89.91268
383.36        88.42528
383.81        87.64156
384.26        87.64127
384.71         88.2086
385.15        88.99354
385.60        89.37884
386.05        89.17644
386.50        88.56677
386.95        87.72125
387.40        86.91956
387.85        86.27267
388.29        85.64185
388.74        85.13613
389.19        84.69023
389.64         84.2868
390.09        83.95734
390.54        83.67076
390.98        83.34072
391.43        82.99665
391.88        82.63789
392.33        82.32124
392.78        82.08523
393.23        81.91914
393.67        81.89118
394.12        81.97451
394.57        81.65539
395.02        81.05759
395.47        80.92496
395.91        81.18684
396.36        81.04948
396.81        80.50328
397.26        80.00036
397.71        79.61391
398.15        79.24835
398.60        79.02016
399.05        78.82496
399.50         78.6381
399.95        78.64252
400.39        78.77675
400.84        78.42488
401.29        77.70116
401.74        77.61983
402.18        78.01742
402.63         77.4809
403.08        76.24955
403.53        75.78168
403.97        76.15137
404.42        76.61301
404.87        76.92079
405.32        76.96237
405.76        76.64964
406.21        76.11577
406.66        75.53337
407.11        75.08813
407.55        74.93653
408.00         75.1547
408.45        75.60822
408.90        75.94994
409.34        75.97111
409.79        75.50539
410.24        74.76656
410.68        74.32798
411.13        74.27457
411.58        74.30611
412.03         74.3157
412.47        74.26168
412.92        74.08542
413.37        73.83814
413.81        73.60462
414.26        73.57594
414.71        73.74848
415.15        74.08847
415.60        74.44568
416.05        74.64497
416.49        74.63504
416.94        74.46374
417.39        74.23115
417.83         74.0769
418.28        74.04908
418.73         74.1012
419.17        74.20379
419.62        74.31155
420.07        74.38647
420.51        74.41937
420.96        74.42648
421.41         74.3288
421.85        74.09949
422.30        73.95575
422.74        73.82262
423.19        73.43713
423.64        72.90711
424.08        72.86083
424.53        73.25656
424.98        73.50321
425.42         73.5507
425.87        73.77378
426.31        74.08356
426.76        73.97491
427.21        73.52833
427.65        73.22827
428.10        73.12521
428.54        73.13037
428.99        73.29391
429.44        73.26144
429.88        73.21931
430.33        74.13575
430.77        75.49247
431.22        75.98121
431.66         75.4668
432.11        74.34515
432.56        73.13265
433.00        72.83133
433.45        73.64519
433.89        74.81142
434.34        75.43682
434.78        76.37148
435.23        75.34383
435.67        73.23721
436.12        73.05218
436.57        73.30862
437.01        74.60449
437.46        74.99302
437.90        74.37606
438.35        73.91904
438.79        73.81491
439.24        73.81516
439.68        73.90781
440.13        74.42767
440.57        75.19013
441.02        75.08491
441.46         74.3297
441.91        74.81261
442.35        76.08786
442.80        76.06842
443.24        74.94607
443.69        74.82507
444.13        75.66451
444.58        75.99469
445.02        75.76232
445.47        75.79059
445.91          76.102
446.36        76.27916
446.80        76.26356
447.24        76.71737
447.69        76.59415
448.13        76.69187
448.58        76.71774
449.02        76.68062
449.47        76.59238
449.91        76.46065
450.36        76.33288
450.80        76.18295
451.25        76.07979
451.69        76.06055
452.13        76.14646
452.58        76.31451
453.02        76.50073
453.47        76.60959
453.91        76.59666
454.36        76.48911
454.80        76.31363
455.24        76.03865
455.69        75.68932
456.13        75.47385
456.58        75.41513
457.02        74.86483
457.46        74.13586
457.91        74.51208
458.35        75.61716
458.79        75.80775
459.24        75.05106
459.68        74.13987
460.13        73.38739
460.57        73.06589
461.01        73.25871
461.46        73.48702
461.90        73.46498
462.34        75.04332
462.79        74.47462
463.23        74.68629
463.68        74.76422
464.12        74.64642
464.56        74.32104
465.01        73.60435
465.45        72.74554
465.89        72.42625
466.34         72.5687
466.78        72.93236
467.22        73.24358
467.67         72.6097
468.11        72.50119
468.55        72.50559
468.99        72.94839
469.44        72.97688
469.88         72.5781
470.32        72.22951
470.77        72.01296
471.21        71.86523
471.65        71.79749
472.10         71.8335
472.54        71.91141
472.98        71.90009
473.42        71.76198
473.87        71.68013
474.31        71.59646
474.75        71.18978
475.20        70.64472
475.64        70.61841
476.08        71.03675
476.52        71.14278
476.97        70.86909
477.41        70.74339
477.85        70.87563
478.29         70.6691
478.74        70.67776
479.18        71.25652
479.62        70.97936
480.06        71.03982
480.50        70.90005
480.95        71.03421
481.39        71.50666
481.83        70.40747
482.27        70.68046
482.72        70.81757
483.16        70.75946
483.60        70.03118
484.04        70.50141
484.48        70.82834
484.93        71.49275
485.37        70.61515
485.81        70.24059
486.25        70.06084
486.69        71.55023
487.14        71.83691
487.58        70.61938
488.02        71.13812
488.46        69.29321
488.90        69.08773
489.34        70.84683
489.79         71.5479
490.23        71.12047
490.67        70.51324
491.11        69.95584
491.55        69.74516
491.99        69.85525
492.43        69.69355
492.88        69.27549
493.32        69.15075
493.76        69.33562
494.20        69.48331
494.64        69.53686
495.08        69.70845
495.52        69.93323
495.96        69.77649
496.41        69.31643
496.85        69.48219
497.29        69.61024
497.73        69.65923
498.17        68.71033
498.61        68.51076
499.05        68.81791
499.49        69.26739
499.93        69.44965
500.37         69.4013
500.82        69.11961
501.26        69.08376
501.70        69.30597
502.14        69.40697
502.58        69.38809
503.02        69.45177
503.46        69.59724
503.90        69.75387
504.34        69.85806
504.78        69.82061
505.22        69.62636
505.66        69.32269
506.10        69.04495
506.54        68.88142
506.98        68.84465
507.42        69.11646
507.86         69.6501
508.30        69.17543
508.74        69.52792
509.18        69.25209
509.62        68.98163
510.06        68.78815
510.50        68.72096
510.94        68.72063
511.38         68.7414
511.82         68.7632
512.26        68.76871
512.70        68.78087
513.14        68.79551
513.58        68.79915
514.02        68.79174
514.46        68.76476
514.90        68.74945
515.34        68.80186
515.78        68.92429
516.22        69.09586
516.66        69.25115
517.10        69.28494
517.54        69.17997
517.98        68.97635
518.42        68.74481
518.86        68.59973
519.30        68.57178
519.74         68.6217
520.18        68.71539
520.62        68.79644
521.06         68.8444
521.50        68.88508
521.93         68.9065
522.37        68.86596
522.81        68.77425
523.25        68.63535
523.69        68.51066
524.13        68.50075
524.57        68.61604
525.01        68.81866
525.45        69.02663
525.89        69.10429
526.32        69.01246
526.76        68.81688
527.20        68.57189
527.64        68.37043
528.08        68.24656
528.52        68.17138
528.96        68.14885
529.40        68.18562
529.83        68.26755
530.27        68.39964
530.71        68.52975
531.15        68.57792
531.59        68.52987
532.03         68.4061
532.46        68.24406
532.90        68.15533
533.34        68.15271
533.78        68.16525
534.22        68.17211
534.66        68.22504
535.09        68.26159
535.53        68.13596
535.97        67.87436
536.41        67.69492
536.85         67.6204
537.28        67.53127
537.72        67.45551
538.16        67.49115
538.60        67.63542
539.04        67.85552
539.47        68.06306
539.91        68.16464
540.35        68.12569
540.79        67.98431
541.22        67.80225
541.66         67.7027
542.10        67.70924
542.54        67.78267
542.97        67.87801
543.41         67.9572
543.85         67.9921
544.29        68.00787
544.72        67.98952
545.16        67.95271
545.60        67.89296
546.04        67.81447
546.47        67.75382
546.91        67.77421
547.35          67.882
547.79        68.03692
548.22        68.18764
548.66        68.29594
549.10        68.38757
549.53        68.31966
549.97        68.15656
550.41         67.9688
550.84        67.84882
551.28         67.9174
551.72        68.08499
552.15        68.18306
552.59        68.24781
553.03        67.78033
553.46        68.05135
553.90          67.984
554.34        67.93711
554.77        67.93804
555.21        68.01154
555.65        68.06248
556.08        68.04229
556.52        68.29317
556.96        68.15729
557.39        68.21588
557.83        68.25261
558.27        68.01299
558.70        67.57151
559.14        67.38445
559.57        67.43629
560.01        67.41033
560.45        67.33331
560.88        67.40279
561.32         67.6172
561.75        67.93665
562.19        68.26209
562.63        68.12146
563.06        67.65564
563.50        67.69292
563.93        68.11156
564.37        68.21877
564.80        68.02469
565.24        67.81405
565.68        67.48631
566.11        68.15336
566.55           67.38
566.98        67.20541
567.42        67.05457
567.85        67.17943
568.29        67.55623
568.72        67.96643
569.16        68.41872
569.60        68.58969
570.03        68.67558
570.47        68.81602
570.90        69.10927
571.34        68.17379
571.77         68.8631
572.21        68.89008
572.64        68.91006
573.08        68.96659
573.51        68.28396
573.95         68.1714
574.38        68.53395
574.82        68.89734
