SpectraSmart Spectrum 2.9.0.0
--------- Device Information -----------
Spectrum Name :  反射率_0
Saving Time :  2024/04/27 00:06:27
Spectro-Module Model Name : SE2030-DUVN
Spectro-Module Serial Number : OS361AC55029948
Wavelength Start : 200
Wavelength End : 1025
Wavelength Unit : Wavelength(nm)
Spectrum Unit : Reflectance(%)
-----------Spectrum Setting ------------
Integration Time : 20ms
Average : 10
Boxcar : 0
Background removal :  enabled
linearity correction :  enabled
SC :  disabled
Intensity correction :  disabled
DWT denoise :  enabled
savitzky-golay :  disabled
FFT :  disabled
Running average :  disabled
Kalman :  disabled
High pass :  disabled
---------------BEGIN--------------------
Wavelength(nm)             Reflectance(%)
200.29               0
200.75        45.66262
201.21        43.39058
201.67         41.4738
202.13        40.39032
202.58        39.99344
203.04        40.56919
203.50        42.35804
203.96        45.13753
204.42        48.61763
204.88        52.77306
205.34         56.6265
205.80        58.91793
206.26        59.19316
206.72        57.28569
207.18        55.09938
207.64        54.51776
208.10        55.80783
208.55        59.90887
209.01        64.59128
209.47        62.57578
209.93        53.55553
210.39        43.72433
210.85         38.0535
211.31        38.82922
211.77        46.87099
212.23        68.01473
212.69        122.2006
213.14         211.031
213.60        203.0452
214.06        137.2889
214.52        92.99065
214.98        71.50964
215.44         59.9766
215.90        50.83769
216.36         44.0029
216.81        40.80835
217.27        41.88818
217.73        49.08787
218.19        60.31365
218.65        62.64597
219.11        53.00729
219.57        40.32774
220.02        32.95082
220.48        35.27526
220.94        47.05099
221.40        69.54117
221.86        102.9161
222.32         127.733
222.77        124.5573
223.23        105.3944
223.69        83.91004
224.15        68.13493
224.61        57.88024
225.06        50.20366
225.52        45.42449
225.98        43.83421
226.44        44.81857
226.90        48.09451
227.36        52.00899
227.81        53.57763
228.27         52.3671
228.73        49.27532
229.19        46.24659
229.65        45.60182
230.10        47.40807
230.56        50.80788
231.02        54.11348
231.48        54.70256
231.93        52.23735
232.39        48.24244
232.85        44.36433
233.31        42.66871
233.77        43.38154
234.22        45.75222
234.68        48.80563
235.14        51.15122
235.60        52.33189
236.05          52.821
236.51        52.90607
236.97         53.1746
237.43        53.89849
237.88        54.82036
238.34        55.89298
238.80        57.47324
239.26        59.76859
239.71        63.33783
240.17        67.87279
240.63        72.45424
241.08        76.37112
241.54        78.94096
242.00         81.1451
242.46        85.65297
242.91        94.92011
243.37        110.1059
243.83        132.3133
244.28        153.5474
244.74        159.1401
245.20        147.0689
245.66        128.5275
246.11        114.4163
246.57        106.1197
247.03        100.9149
247.48        95.81157
247.94         87.7879
248.40        78.89508
248.85        71.25389
249.31        66.60406
249.77        65.12373
250.22        66.13063
250.68         69.6235
251.14        74.19505
251.59        75.24006
252.05        71.32454
252.51        65.14811
252.96        60.37854
253.42        60.68848
253.88        65.06174
254.33        70.71265
254.79        76.60502
255.25        81.48328
255.70        85.13164
256.16        88.32793
256.62        89.82191
257.07        87.81483
257.53        84.00528
257.99        79.81105
258.44        76.38016
258.90        75.26641
259.35        75.45092
259.81        76.55044
260.27        77.60838
260.72        77.55154
261.18        76.58892
261.63        74.84158
262.09        73.10852
262.55        71.60042
263.00        70.23272
263.46        69.09339
263.91        67.78085
264.37        66.21519
264.83        64.40585
265.28        62.46617
265.74        60.85042
266.19        59.74051
266.65        59.20891
267.11        59.01442
267.56        58.94221
268.02         58.6733
268.47        58.09147
268.93        57.32042
269.38        56.34364
269.84        55.21972
270.30        53.97565
270.75        52.58599
271.21         51.2314
271.66        50.11587
272.12        49.27654
272.57        48.63107
273.03        48.00383
273.48         47.0843
273.94         45.8904
274.39        44.51998
274.85          43.216
275.31        42.14457
275.76        41.31988
276.22        40.70948
276.67        40.21868
277.13        39.83268
277.58        39.45288
278.04        39.10321
278.49        38.68185
278.95        38.17329
279.40         37.5228
279.86        36.83439
280.31        36.06992
280.77        35.30669
281.22        34.53304
281.68        33.81165
282.13        33.18869
282.59        32.82295
283.04         32.6804
283.50        32.74163
283.95         32.8549
284.41        32.79494
284.86        32.51374
285.32        32.11165
285.77        31.71924
286.22        31.59744
286.68        31.77733
287.13        32.11654
287.59        32.48891
288.04        32.65209
288.50        32.57447
288.95        32.31313
289.41        31.96905
289.86        31.60561
290.32        31.31547
290.77        31.08695
291.22        30.97425
291.68        31.03872
292.13        31.28776
292.59        31.73516
293.04        32.39028
293.50        33.27557
293.95        34.35815
294.40        35.61684
294.86        36.95783
295.31        38.22992
295.77        39.40915
296.22        40.51373
296.68        41.64701
297.13        42.95913
297.58        44.49712
298.04        46.22017
298.49        48.03978
298.95        49.83499
299.40        51.55168
299.85        53.22509
300.31        54.91073
300.76        56.66933
301.21        58.51689
301.67        60.43226
302.12        62.32308
302.58        64.14967
303.03        65.85613
303.48        67.50607
303.94        69.16546
304.39         70.8549
304.84        72.62159
305.30        74.46469
305.75        76.34125
306.20        78.27979
306.66        80.28035
307.11        82.28761
307.57        84.26154
308.02        86.02705
308.47        87.58348
308.93        88.97446
309.38        90.27956
309.83        91.75063
310.29        93.43383
310.74        95.24809
311.19        97.00418
311.65        98.36269
312.10        99.22643
312.55        99.69897
313.00         100.028
313.46        100.6017
313.91        101.4878
314.36        102.6036
314.82        103.7381
315.27        104.5645
315.72        104.9803
316.18        105.1275
316.63        105.1632
317.08        105.3785
317.53        105.8536
317.99        106.4831
318.44        107.1669
318.89        107.7137
319.35        108.0581
319.80        108.2658
320.25        108.4023
320.70        108.5697
321.16        108.8011
321.61        109.1066
322.06        109.4282
322.51         109.687
322.97         109.851
323.42        109.9464
323.87        110.0928
324.32        110.5039
324.78        111.1717
325.23        112.1106
325.68        112.9985
326.13        113.3151
326.59        112.9525
327.04        112.0977
327.49        111.1769
327.94        110.8982
328.39        111.4295
328.85         112.536
329.30        113.9336
329.75        114.8303
330.20        114.9707
330.66         114.551
331.11        113.9618
331.56        113.7514
332.01        114.0957
332.46        114.8039
332.92        115.5997
333.37        116.1959
333.82        116.4157
334.27        116.4123
334.72        116.3308
335.17        116.3809
335.63        116.6326
336.08        117.0731
336.53        117.6551
336.98        118.3594
337.43        119.1505
337.88        120.0046
338.34        120.8674
338.79        121.7716
339.24        122.6255
339.69        123.4082
340.14        123.9825
340.59        124.1535
341.05        123.9535
341.50        123.4729
341.95        122.9893
342.40        122.9199
342.85        123.3662
343.30        124.2027
343.75        125.2487
344.20         126.188
344.66        126.8952
345.11        127.4423
345.56         127.821
346.01         128.031
346.46        128.1166
346.91        128.0887
347.36        128.0394
347.81        128.1391
348.26        128.4094
348.72        128.7741
349.17        129.1924
349.62        129.6286
350.07        130.0346
350.52        130.4455
350.97        130.6397
351.42        130.2725
351.87        129.3382
352.32        127.9649
352.77        126.6283
353.22        126.0228
353.67        126.2668
354.13        127.1635
354.58        128.2171
355.03        128.5422
355.48        127.9162
355.93        126.6016
356.38        125.1415
356.83        124.3578
357.28        124.4092
357.73        125.0027
358.18        125.6445
358.63        125.5484
359.08        124.5296
359.53        122.8892
359.98         121.049
360.43        119.6113
360.88        118.7254
361.33        118.1871
361.78        117.7736
362.23        117.1456
362.68        116.2152
363.13        115.1332
363.58         114.007
364.03        112.9732
364.48        112.0694
364.93        111.2138
365.38        110.4094
365.83         109.686
366.28        109.0385
366.73        108.4824
367.18        107.9164
367.63        107.1657
368.08        106.2099
368.53        105.1009
368.98        104.0075
369.43        103.2025
369.88        102.7385
370.33        102.5252
370.78         102.381
371.23        102.0077
371.68         101.318
372.13        100.3952
372.58        99.37777
373.03        98.48589
373.48        97.78168
373.93        97.19666
374.38        96.63651
374.83        95.96153
375.28        95.14243
375.72        94.21868
376.17        93.33459
376.62         92.5827
377.07        91.99483
377.52        91.55073
377.97        91.16512
378.42        90.71822
378.87        90.18528
379.32        89.57929
379.77        89.03859
380.22        88.76167
380.67        88.75365
381.11        88.97348
381.56        89.10433
382.01        88.72408
382.46        87.78413
382.91        86.48444
383.36        85.19983
383.81        84.43658
384.26        84.27287
384.71         84.5351
385.15        84.97664
385.60        85.16335
386.05        84.96282
386.50        84.50252
386.95        83.89703
387.40        83.32974
387.85         82.8677
388.29        82.39508
388.74        82.00101
389.19         81.6016
389.64        81.18434
390.09         80.7828
390.54        80.39499
390.98        79.99253
391.43        79.61643
391.88        79.25114
392.33        78.93974
392.78        78.68291
393.23        78.46312
393.67        78.40687
394.12        78.47189
394.57        78.04252
395.02        77.28636
395.47        77.14011
395.91         77.5331
396.36        77.49814
396.81        77.02006
397.26        76.65874
397.71        76.44843
398.15        76.22298
398.60        76.08383
399.05        75.84339
399.50        75.54807
399.95        75.66756
400.39        76.04218
400.84        75.64576
401.29        74.60954
401.74         74.1626
402.18        74.30633
402.63        73.98932
403.08        73.31368
403.53        73.08588
403.97        73.31809
404.42        73.62979
404.87        73.87093
405.32        73.89722
405.76        73.64373
406.21        73.28808
406.66        72.90107
407.11        72.42239
407.55        72.03185
408.00        72.04314
408.45        72.38942
408.90        72.72832
409.34        72.82964
409.79        72.39339
410.24        71.63029
410.68        71.24443
411.13        71.30807
411.58        71.41048
412.03        71.43717
412.47        71.39417
412.92        71.22259
413.37        70.96204
413.81        70.67831
414.26        70.53237
414.71        70.52747
415.15        70.64587
415.60        70.81033
416.05        70.96806
416.49        71.09347
416.94        71.18949
417.39        71.26577
417.83        71.32121
418.28        71.36368
418.73         71.3862
419.17        71.39227
419.62         71.3965
420.07        71.38856
420.51        71.33868
420.96        71.28299
421.41        71.17931
421.85         70.9996
422.30        70.94752
422.74        70.90293
423.19        70.53162
423.64        69.92643
424.08        69.72588
424.53        69.93745
424.98        70.05794
425.42        70.06337
425.87        70.32589
426.31        70.73483
426.76        70.68919
427.21        70.27671
427.65        70.13316
428.10         70.2474
428.54        70.29314
428.99        70.32269
429.44        70.13972
429.88        69.94856
430.33        70.73038
430.77         72.0118
431.22        72.35811
431.66        71.73145
432.11         70.9859
432.56        70.46007
433.00        70.39622
433.45        70.92776
433.89        71.69926
434.34        71.97153
434.78         72.8026
435.23        71.72726
435.67        69.46263
436.12        70.40106
436.57        70.47382
437.01        70.92535
437.46        71.04398
437.90        70.81959
438.35         70.6078
438.79        70.53969
439.24         70.5649
439.68        70.66084
440.13        71.04572
440.57        71.61855
441.02        71.48684
441.46        70.82804
441.91        71.37655
442.35        72.64455
442.80        72.39012
443.24         70.9363
443.69        70.92351
444.13        72.21613
444.58        72.70284
445.02        72.30888
445.47        72.17954
445.91        72.38284
446.36        72.55093
446.80        72.67578
447.24        72.84241
447.69        73.01337
448.13        73.11394
448.58        73.14597
449.02        73.09824
449.47         73.0125
449.91        72.92731
450.36        72.88093
450.80        72.84278
451.25         72.8357
451.69        72.82627
452.13        72.82853
452.58        72.86168
453.02        72.90778
453.47        72.92274
453.91        72.89088
454.36        72.84557
454.80        72.77875
455.24        72.58754
455.69        72.27631
456.13        72.01864
456.58        71.94293
457.02        71.35997
457.46        71.33173
457.91        71.54147
458.35        71.99667
458.79        71.91787
459.24        71.31168
459.68        70.49058
460.13        69.76289
460.57        69.43488
461.01        69.64031
461.46        70.05869
461.90        70.46291
462.34         71.4081
462.79        71.28587
463.23        71.27013
463.68        70.96834
464.12        70.89454
464.56        70.90237
465.01        70.30728
465.45        69.33607
465.89         68.8804
466.34        68.89315
466.78        69.20811
467.22        69.76466
467.67        68.69699
468.11        68.71999
468.55        68.63689
468.99        69.12778
469.44        69.17973
469.88         68.7805
470.32        68.47162
470.77        68.29839
471.21        68.15536
471.65        68.04566
472.10        67.98084
472.54        67.96696
472.98        68.03304
473.42         68.0271
473.87        68.25605
474.31        68.49445
474.75        68.06506
475.20        67.19303
475.64        66.95244
476.08        67.34918
476.52        67.35429
476.97        66.91788
477.41        66.91401
477.85        67.42433
478.29         66.7934
478.74        67.17005
479.18        67.34977
479.62        67.48422
480.06        67.55886
480.50        67.42463
480.95        67.38458
481.39        67.43965
481.83        66.94729
482.27        67.07089
482.72        66.96516
483.16        66.85416
483.60        66.86148
484.04        66.96625
484.48        67.13608
484.93        67.20261
485.37        67.28226
485.81        66.99665
486.25        66.56622
486.69        68.15031
487.14         68.6548
487.58         66.6188
488.02        67.07935
488.46        65.82037
488.90        66.07637
489.34        67.39683
489.79        68.15228
490.23        67.30489
490.67        66.54863
491.11        65.92277
491.55        65.86512
491.99        66.27412
492.43        66.29707
492.88        65.91616
493.32        65.80799
493.76        66.00951
494.20        66.16309
494.64        66.23698
495.08        66.38821
495.52        66.54275
495.96        66.45108
496.41        66.16164
496.85        66.01183
497.29        65.92667
497.73        65.96665
498.17        65.34074
498.61        65.25684
499.05        65.45274
499.49        65.74009
499.93        65.77593
500.37        65.82973
500.82        65.88237
501.26        65.87931
501.70        65.75256
502.14          66.406
502.58        65.98976
503.02        66.09433
503.46        66.16855
503.90         66.2194
504.34        66.19186
504.78        66.04277
505.22        65.78371
505.66        65.45068
506.10        65.15398
506.54        64.93188
506.98        64.79044
507.42        65.05648
507.86        65.30212
508.30        65.09487
508.74        65.35976
509.18        65.27187
509.62        65.19069
510.06        65.16286
510.50         65.2142
510.94        65.29479
511.38        65.36508
511.82        65.39651
512.26        65.37846
512.70        65.33201
513.14        65.25535
513.58        65.18513
514.02        65.14074
514.46        65.03235
514.90        64.87457
515.34        65.12198
515.78        65.09173
516.22        65.30936
516.66        65.50034
517.10         65.5667
517.54        65.48019
517.98        65.28579
518.42        65.05563
518.86        64.88928
519.30        64.82181
519.74        64.82397
520.18        64.87025
520.62        64.91765
521.06        64.95171
521.50        64.99298
521.93        65.04192
522.37        65.07484
522.81        65.09736
523.25        65.10201
523.69         65.1078
524.13        65.15395
524.57        65.23746
525.01        65.33332
525.45        65.40718
525.89         65.4026
526.32         65.3067
526.76         65.1713
527.20        65.00053
527.64        64.82171
528.08         64.6574
528.52        64.45544
528.96        64.29601
529.40        64.40383
529.83        64.73136
530.27        65.01614
530.71        65.15848
531.15         65.2071
531.59        65.13579
532.03        64.86247
532.46         64.4944
532.90        64.31094
533.34        64.35087
533.78        64.49715
534.22        64.65381
534.66        64.75207
535.09         64.7102
535.53        64.43529
535.97        64.02686
536.41         63.8028
536.85        63.80891
537.28          63.891
537.72        64.01485
538.16        64.17673
538.60        64.34552
539.04        64.52217
539.47        64.65484
539.91        64.70446
540.35        64.65285
540.79        64.51389
541.22        64.34165
541.66        64.24876
542.10        64.25348
542.54        64.32794
542.97        64.41232
543.41        64.43966
543.85        64.38376
544.29        64.27991
544.72         64.1534
545.16        64.08021
545.60         64.0663
546.04        64.09388
546.47        64.15232
546.91        64.23798
547.35        64.35124
547.79        64.42163
548.22         64.4202
548.66        64.50389
549.10        64.73498
549.53        64.32829
549.97        64.37868
550.41        64.13172
550.84        63.99373
551.28        64.00999
551.72        64.10767
552.15        64.24115
552.59        64.45998
553.03        63.85053
553.46        64.34842
553.90        64.30009
554.34        64.27058
554.77        64.24553
555.21        64.26684
555.65        64.35561
556.08        64.47831
556.52        64.58382
556.96        64.61698
557.39        64.66103
557.83        64.67083
558.27        64.32983
558.70        63.74018
559.14        63.49084
559.57        63.58995
560.01         63.5338
560.45        63.39107
560.88        63.76524
561.32         64.4953
561.75        64.77515
562.19        64.59787
562.63        64.35848
563.06        64.18783
563.50        64.21721
563.93        64.35925
564.37        64.45399
564.80        64.46976
565.24        64.28333
565.68        63.81837
566.11         64.4005
566.55        63.73401
566.98        63.60247
567.42        63.45782
567.85        63.59736
568.29        63.99009
568.72        64.39069
569.16        64.81107
569.60        64.96478
570.03        65.03562
570.47        65.15066
570.90        65.46566
571.34         64.5009
571.77        65.05786
572.21        65.16918
572.64        64.99374
573.08        65.26595
573.51        64.62593
573.95         64.6435
574.38        65.05808
574.82        65.33887
