SpectraSmart Spectrum 2.9.0.0
--------- Device Information -----------
Spectrum Name :  反射率_0
Saving Time :  2024/04/27 00:05:17
Spectro-Module Model Name : SE2030-DUVN
Spectro-Module Serial Number : OS361AC55029948
Wavelength Start : 200
Wavelength End : 1025
Wavelength Unit : Wavelength(nm)
Spectrum Unit : Reflectance(%)
-----------Spectrum Setting ------------
Integration Time : 20ms
Average : 10
Boxcar : 0
Background removal :  enabled
linearity correction :  enabled
SC :  disabled
Intensity correction :  disabled
DWT denoise :  enabled
savitzky-golay :  disabled
FFT :  disabled
Running average :  disabled
Kalman :  disabled
High pass :  disabled
---------------BEGIN--------------------
Wavelength(nm)             Reflectance(%)
200.29               0
200.75        53.97386
201.21        48.87165
201.67        43.72547
202.13        39.82164
202.58        37.07546
203.04        35.19305
203.50        34.69291
203.96        36.97204
204.42        42.67645
204.88        51.37004
205.34        61.15484
205.80        68.50387
206.26        71.66306
206.72        70.87138
207.18        67.63699
207.64        63.18301
208.10        57.50546
208.55        50.08615
209.01        40.12156
209.47        32.65913
209.93        32.43836
210.39         36.7163
210.85        42.48391
211.31        49.50865
211.77        60.29178
212.23        82.20773
212.69        133.8008
213.14        214.3484
213.60        201.0783
214.06        135.8213
214.52        94.29703
214.98        76.83678
215.44        70.41646
215.90        67.77786
216.36        67.47684
216.81        68.20589
217.27        69.71297
217.73        74.40963
218.19        79.91035
218.65        76.32667
219.11        64.27366
219.57        51.44216
220.02        44.80193
220.48        48.02299
220.94        60.68209
221.40        84.57973
221.86        119.1414
222.32          142.05
222.77        133.6361
223.23        108.7293
223.69        83.44036
224.15         66.7425
224.61        57.52676
225.06        51.87711
225.52        49.20752
225.98        48.98139
226.44        50.51529
226.90        53.77249
227.36        57.39138
227.81        58.81649
228.27         57.7104
228.73         54.8434
229.19         51.8006
229.65        50.47226
230.10        50.97039
230.56        52.66573
231.02        54.51643
231.48        54.90657
231.93        53.59518
232.39        51.63872
232.85        49.90753
233.31        49.54018
233.77        50.66063
234.22        52.80002
234.68        55.52184
235.14        58.30807
235.60        60.93953
236.05        63.70649
236.51        66.31313
236.97        68.12463
237.43        68.91324
237.88        68.71193
238.34        68.22921
238.80        69.18034
239.26        72.32552
239.71        78.23735
240.17         86.2911
240.63        94.21597
241.08        100.2499
241.54        103.5366
242.00        105.8201
242.46        111.7271
242.91        125.1403
243.37        147.8132
243.83        180.7446
244.28        210.2585
244.74        213.9594
245.20        190.7352
245.66        160.0427
246.11        139.6681
246.57        130.6822
247.03        128.1784
247.48        126.3243
247.94        117.5194
248.40        104.3936
248.85        92.17171
249.31         84.0566
249.77         80.7475
250.22        81.20789
250.68        84.49116
251.14        89.79102
251.59        93.66708
252.05        94.10294
252.51        93.03178
252.96        90.79903
253.42         88.4677
253.88        86.34509
254.33        83.66744
254.79        83.04577
255.25        86.44983
255.70        93.18611
256.16        102.3805
256.62        109.7102
257.07        108.8177
257.53        102.0148
257.99        93.53834
258.44        86.71159
258.90        84.56522
259.35        85.57582
259.81        88.50558
260.27        91.44398
260.72        92.14942
261.18        90.84425
261.63         88.1603
262.09        85.59728
262.55        83.97353
263.00        83.13033
263.46        82.84795
263.91        82.24821
264.37        80.74384
264.83        78.32601
265.28        75.39812
265.74        72.77515
266.19        71.00659
266.65        70.22973
267.11        70.01938
267.56         70.0316
268.02        69.75957
268.47         69.0191
268.93        68.03667
269.38        66.76185
269.84        65.20123
270.30        63.40371
270.75        61.35091
271.21         59.4073
271.66        58.05014
272.12        57.35151
272.57        57.14006
273.03        56.99172
273.48         56.1881
273.94        54.67624
274.39        52.68591
274.85        50.72194
275.31        49.29184
275.76        48.45957
276.22        48.07341
276.67         47.8433
277.13        47.50342
277.58        46.89985
278.04         46.1639
278.49        45.32872
278.95        44.59072
279.40         43.9185
279.86        43.33241
280.31        42.67353
280.77        41.87537
281.22        40.89728
281.68        39.89228
282.13        38.96088
282.59        38.34655
283.04        38.03287
283.50        37.97441
283.95        38.02994
284.41        38.00202
284.86        37.82804
285.32        37.59437
285.77        37.36752
286.22        37.32765
286.68        37.49283
287.13        37.74002
287.59        37.98678
288.04        38.05338
288.50        37.93374
288.95        37.66309
289.41        37.33023
289.86         36.9708
290.32        36.67116
290.77        36.41703
291.22        36.27868
291.68        36.33336
292.13        36.59111
292.59        37.07702
293.04        37.76124
293.50        38.60847
293.95        39.58613
294.40        40.69217
294.86        41.93184
295.31        43.30725
295.77        44.80653
296.22        46.37785
296.68        47.98134
297.13        49.54185
297.58        51.05901
298.04        52.57003
298.49         54.0885
298.95        55.66303
299.40        57.29392
299.85        58.96388
300.31        60.71289
300.76        62.57021
301.21        64.53277
301.67        66.60035
302.12        68.62814
302.58        70.49829
303.03        72.14079
303.48        73.63393
303.94        75.12099
304.39        76.74103
304.84        78.55178
305.30        80.49834
305.75        82.44292
306.20        84.27712
306.66        85.97987
307.11        87.55834
307.57        89.03824
308.02        90.33154
308.47        91.48141
308.93        92.51608
309.38        93.53207
309.83        94.80849
310.29         96.3821
310.74        98.15694
311.19        99.89812
311.65         101.188
312.10        101.9071
312.55        102.1802
313.00        102.2708
313.46         102.593
313.91        103.2284
314.36        104.0874
314.82        104.9889
315.27        105.6572
315.72        105.9997
316.18         106.147
316.63        106.2107
317.08        106.4069
317.53         106.796
317.99        107.2905
318.44        107.8242
318.89        108.2647
319.35        108.5639
319.80        108.7694
320.25         108.919
320.70        109.0735
321.16        109.2534
321.61        109.4803
322.06        109.7197
322.51        109.9307
322.97        110.0878
323.42        110.2016
323.87        110.3588
324.32        110.7223
324.78        111.2719
325.23        112.0396
325.68        112.7377
326.13        112.9065
326.59        112.4628
327.04        111.5843
327.49        110.6754
327.94        110.4059
328.39        110.9321
328.85         112.029
329.30        113.4301
329.75        114.3762
330.20        114.6122
330.66          114.31
331.11        113.8235
331.56        113.6495
332.01        113.9483
332.46        114.5429
332.92        115.1759
333.37         115.596
333.82        115.6489
334.27        115.4903
334.72        115.2761
335.17         115.228
335.63        115.4205
336.08        115.8428
336.53        116.4443
336.98        117.1942
337.43         118.047
337.88        118.9708
338.34         119.893
338.79        120.8213
339.24        121.6517
339.69        122.3593
340.14        122.8167
340.59        122.8506
341.05        122.5044
341.50        121.8746
341.95        121.2291
342.40        120.9654
342.85        121.1857
343.30        121.7738
343.75        122.5904
344.20        123.3841
344.66        124.0421
345.11        124.6176
345.56        125.0414
346.01        125.2171
346.46         125.167
346.91        124.9287
347.36        124.6585
347.81        124.6255
348.26        124.8776
348.72        125.3159
349.17        125.8347
349.62        126.2966
350.07        126.6288
350.52        126.8863
350.97        126.9369
351.42        126.5766
351.87        125.8204
352.32        124.7492
352.77        123.6934
353.22        123.1357
353.67        123.1566
354.13        123.6153
354.58         124.191
355.03        124.2965
355.48        123.7776
355.93        122.7995
356.38        121.6795
356.83        120.9506
357.28        120.7191
357.73        120.6978
358.18        120.5715
358.63        120.3897
359.08         119.199
359.53        117.8638
359.98        116.3859
360.43        115.1378
360.88         114.202
361.33          113.48
361.78        112.8339
362.23        112.0333
362.68        111.0349
363.13        109.9338
363.58         108.848
364.03        107.9407
364.48        107.2358
364.93        106.6504
365.38        106.0906
365.83        105.4249
366.28        104.6156
366.73        103.7144
367.18         102.754
367.63        101.7766
368.08        100.8103
368.53        99.85316
368.98        98.93503
369.43        98.10029
369.88        97.35812
370.33        96.70135
370.78         96.1076
371.23        95.53893
371.68        94.97613
372.13        94.41336
372.58        93.84755
373.03        93.27692
373.48        92.68958
373.93        92.07245
374.38        91.39868
374.83        90.64025
375.28        89.80245
375.72        88.88698
376.17         87.9959
376.62        87.16778
377.07        86.43233
377.52        85.80987
377.97         85.2659
378.42        84.75331
378.87        84.26321
379.32        83.77234
379.77        83.38493
380.22        83.25538
380.67        83.36515
381.11          83.676
381.56        83.85075
382.01        83.42688
382.46        82.36218
382.91        80.88866
383.36        79.42192
383.81        78.52265
384.26        78.28716
384.71        78.52652
385.15        79.01521
385.60        79.35088
386.05        79.38294
386.50        79.21091
386.95        78.86368
387.40        78.39585
387.85         77.8576
388.29        77.18769
388.74        76.54438
389.19        75.95644
389.64        75.43723
390.09        74.98312
390.54        74.59087
390.98        74.23006
391.43        73.93504
391.88        73.70089
392.33        73.51537
392.78        73.33874
393.23        73.15532
393.67        72.98118
394.12        72.86852
394.57        72.64198
395.02        72.34734
395.47        72.22625
395.91        72.24833
396.36        72.10522
396.81        71.80099
397.26         71.5127
397.71        71.24406
398.15        70.91396
398.60        70.61667
399.05        70.27106
399.50        69.93552
399.95        69.84552
400.39        69.96597
400.84        69.84035
401.29        69.47057
401.74        69.36607
402.18        69.42904
402.63        68.91247
403.08        68.01686
403.53        67.61121
403.97         67.7569
404.42        68.04099
404.87        68.26339
405.32        68.24738
405.76        67.92637
406.21        67.41678
406.66        66.87067
407.11        66.53941
407.55        66.53104
408.00        66.67696
408.45        66.89678
408.90        67.27385
409.34        67.56538
409.79        67.13968
410.24        66.22942
410.68        65.75782
411.13         65.8131
411.58        65.90792
412.03        65.92937
412.47        65.90765
412.92        65.78292
413.37        65.58567
413.81        65.38065
414.26        65.32019
414.71         65.4019
415.15        65.60275
415.60         65.8203
416.05        65.95243
416.49        65.96696
416.94        65.89159
417.39        65.77676
417.83        65.68243
418.28        65.63852
418.73        65.62978
419.17        65.65399
419.62        65.70932
420.07        65.77296
420.51        65.81705
420.96         65.8619
421.41        65.83456
421.85        65.69505
422.30        65.67367
422.74        65.66032
423.19        65.24247
423.64        64.55536
424.08        64.46519
424.53        64.92087
424.98        65.05974
425.42        64.81754
425.87         65.0385
426.31        65.05341
426.76        65.09889
427.21        65.00102
427.65        64.94627
428.10        64.92628
428.54        64.94627
428.99        65.04376
429.44        64.97201
429.88        64.84731
430.33        65.24892
430.77        65.91089
431.22        66.19279
431.66        65.99675
432.11        65.43848
432.56        64.79182
433.00        64.71013
433.45        65.31139
433.89        66.17264
434.34        66.56051
434.78        67.54955
435.23         65.5347
435.67        64.64365
436.12        64.46611
436.57        64.72396
437.01        65.31059
437.46        65.52839
437.90        65.35085
438.35        65.15505
438.79        65.25762
439.24        65.32224
439.68        65.39298
440.13        65.60784
440.57          65.957
441.02        65.98452
441.46        65.76643
441.91        66.33486
442.35        67.27544
442.80        67.05075
443.24        65.90125
443.69        65.76418
444.13        66.58987
444.58        66.89157
445.02        66.63273
445.47        66.66568
445.91        66.98889
446.36        67.23238
446.80        67.36423
447.24        67.47728
447.69        67.57718
448.13        67.65596
448.58        67.72736
449.02        67.75528
449.47        67.74563
449.91        67.68457
450.36        67.59788
450.80         67.4802
451.25        67.36961
451.69        67.26762
452.13        67.19521
452.58        67.14109
453.02        67.11379
453.47          67.133
453.91        67.18743
454.36        67.27725
454.80        67.33492
455.24        67.22694
455.69        66.94902
456.13        66.58799
456.58        66.28339
457.02        65.92814
457.46        65.68342
457.91        65.99693
458.35        66.56979
458.79        66.56248
459.24        65.97787
459.68        65.11646
460.13        64.30743
460.57        64.02094
461.01        64.42263
461.46        64.42061
461.90        65.36404
462.34        65.90746
462.79        65.61988
463.23        65.64997
463.68        65.71737
464.12        65.55644
464.56        65.09136
465.01        64.39248
465.45        63.61325
465.89        63.16376
466.34        63.05371
466.78        63.33097
467.22        63.69185
467.67         63.4965
468.11        63.17993
468.55        63.29172
468.99        63.84537
469.44        63.94121
469.88        63.55119
470.32        63.16444
470.77        62.89289
471.21        62.71182
471.65        62.64855
472.10        62.71038
472.54        62.82693
472.98        62.86229
473.42        62.77592
473.87        62.72546
474.31         62.6609
474.75         62.3237
475.20         61.8433
475.64        61.76679
476.08        62.09577
476.52         62.0977
476.97        61.69066
477.41        61.98606
477.85        62.19015
478.29        61.49558
478.74        61.89369
479.18        61.85441
479.62        61.88693
480.06        61.87391
480.50        61.77262
480.95         61.8462
481.39        62.07985
481.83        61.60628
482.27        61.93887
482.72         61.8395
483.16        61.80441
483.60        61.79029
484.04        61.80856
484.48        61.97342
484.93         62.1296
485.37        61.80466
485.81        61.48729
486.25        61.06413
486.69        61.91636
487.14         62.6545
487.58        61.12428
488.02         61.8938
488.46         60.8521
488.90        61.04488
489.34         62.1125
489.79        62.66591
490.23        61.88168
490.67        61.31959
491.11        60.94832
491.55        60.87989
491.99        61.04432
492.43        60.98617
492.88        60.70194
493.32        60.59421
493.76        60.68499
494.20        60.75322
494.64        60.77928
495.08        60.85673
495.52        60.94803
495.96        60.92745
496.41        60.82015
496.85        60.79804
497.29        60.77689
497.73        60.89844
498.17        60.41445
498.61        60.37554
499.05        60.53899
499.49        60.70762
499.93        60.63105
500.37        60.71309
500.82        60.84943
501.26        60.79078
501.70        60.58141
502.14        60.53143
502.58        60.65407
503.02        60.71789
503.46        60.71683
503.90        60.80288
504.34        60.92459
504.78        60.90482
505.22        60.70673
505.66        60.45071
506.10        60.25311
506.54        60.04496
506.98        59.80645
507.42        60.40987
507.86        60.38017
508.30        60.30334
508.74        60.46264
509.18         60.3339
509.62        60.18143
510.06        60.08604
510.50           60.09
510.94        60.13765
511.38        60.19097
511.82        60.21044
512.26        60.18263
512.70        60.13066
513.14        60.06969
513.58        60.03668
514.02        60.04616
514.46        60.05217
514.90        60.05092
515.34        60.21078
515.78        60.25964
516.22        60.38461
516.66        60.47779
517.10        60.53176
517.54         60.5216
517.98        60.39757
518.42        60.20267
518.86        60.06575
519.30        60.01072
519.74         59.9805
520.18        59.98594
520.62         60.0435
521.06        60.15494
521.50        60.35556
521.93        60.57106
522.37        60.62456
522.81        60.49865
523.25        60.24968
523.69        59.99496
524.13        59.90988
524.57        60.02782
525.01        60.29126
525.45        60.57618
525.89        60.67972
526.32        60.54836
526.76        60.26806
527.20        59.94058
527.64        59.72929
528.08        59.67839
528.52        59.73051
528.96        59.83453
529.40        59.91313
529.83        59.93723
530.27        59.94407
530.71        59.93103
531.15        59.89633
531.59        59.84761
532.03        59.77654
532.46        59.70053
532.90        59.69439
533.34        59.75469
533.78        59.82592
534.22        59.87152
534.66        59.90708
535.09        59.87844
535.53        59.67033
535.97        59.33785
536.41        59.12367
536.85        59.06087
537.28        59.02978
537.72        59.03993
538.16        59.14956
538.60        59.34305
539.04        59.59802
539.47        59.82667
539.91        59.93277
540.35        59.88454
540.79        59.71434
541.22        59.49689
541.66        59.37632
542.10        59.38058
542.54        59.46762
542.97        59.57103
543.41        59.61404
543.85        59.56549
544.29        59.46384
544.72        59.33191
545.16        59.23721
545.60        59.19025
546.04        59.17962
546.47        59.20237
546.91        59.27329
547.35        59.38532
547.79         59.4663
548.22        59.51123
548.66        59.65726
549.10        59.88337
549.53        59.80157
549.97        59.48201
550.41        59.23238
550.84        59.15294
551.28        59.19113
551.72        59.27166
552.15        59.37849
552.59        59.55481
553.03        59.09058
553.46         59.4943
553.90        59.45714
554.34        59.41811
554.77        59.38323
555.21        59.37735
555.65        59.39914
556.08        59.42825
556.52        59.42857
556.96        59.39399
557.39        59.46966
557.83        59.60784
558.27        59.47591
558.70        59.12016
559.14        58.96782
559.57         59.0098
560.01        58.95446
560.45        58.82652
560.88        58.88453
561.32        59.11168
561.75        59.25022
562.19        59.28717
562.63        59.25904
563.06        59.19454
563.50        59.20324
563.93        59.22712
564.37        59.23233
564.80        59.23124
565.24        59.10527
565.68         58.7614
566.11        59.34902
566.55        58.74529
566.98        58.64131
567.42        58.52422
567.85        58.64554
568.29        58.96116
568.72        59.21697
569.16        59.47849
569.60        59.51948
570.03         59.4946
570.47        59.68338
570.90        60.25046
571.34        58.97388
571.77        59.62667
572.21        59.98485
572.64        59.51284
573.08        59.78032
573.51        59.22047
573.95        59.30838
574.38        59.74823
574.82         59.7571
