SpectraSmart Spectrum 2.9.0.0
--------- Device Information -----------
Spectrum Name :  反射率_0
Saving Time :  2024/04/26 23:49:57
Spectro-Module Model Name : SE2030-DUVN
Spectro-Module Serial Number : OS361AC55029948
Wavelength Start : 200
Wavelength End : 1025
Wavelength Unit : Wavelength(nm)
Spectrum Unit : Reflectance(%)
-----------Spectrum Setting ------------
Integration Time : 20ms
Average : 10
Boxcar : 0
Background removal :  enabled
linearity correction :  enabled
SC :  disabled
Intensity correction :  disabled
DWT denoise :  enabled
savitzky-golay :  disabled
FFT :  disabled
Running average :  disabled
Kalman :  disabled
High pass :  disabled
---------------BEGIN--------------------
Wavelength(nm)             Reflectance(%)
200.29               0
200.75        45.64944
201.21        46.23392
201.67        47.02079
202.13        47.51759
202.58        47.64398
203.04        47.96774
203.50        48.83985
203.96        50.65181
204.42        53.43515
204.88        56.64751
205.34        59.51548
205.80        61.11892
206.26        61.11427
206.72        59.81179
207.18        57.77823
207.64        55.18333
208.10        51.91346
208.55        47.83783
209.01        42.82747
209.47        40.52084
209.93        42.95279
210.39        47.55105
210.85        52.35289
211.31        57.83366
211.77        66.03295
212.23        81.86077
212.69        118.9035
213.14        179.3425
213.60        173.1085
214.06        127.7318
214.52        96.25836
214.98        78.74571
215.44        66.61456
215.90        55.32478
216.36        45.97303
216.81        41.33075
217.27        42.80059
217.73        51.75924
218.19        67.17967
218.65        76.53996
219.11        73.15919
219.57        63.90565
220.02        57.99955
220.48        61.60086
220.94        74.98402
221.40         99.7595
221.86        134.8795
222.32        156.7926
222.77         145.696
223.23        117.7397
223.69        90.93408
224.15        75.07735
224.61        68.14695
225.06        65.42981
225.52        64.79869
225.98        63.93626
226.44        62.42867
226.90        61.10598
227.36        60.30396
227.81        60.40672
228.27        61.47094
228.73        62.74274
229.19        64.09167
229.65        65.60497
230.10        67.16938
230.56        68.85144
231.02        69.93433
231.48        69.32818
231.93        67.05638
232.39        64.01973
232.85        61.25729
233.31        60.16458
233.77        60.82562
234.22        62.73692
234.68        65.15538
235.14        66.99578
235.60         67.8811
236.05        68.17904
236.51        67.90828
236.97        67.26674
237.43        66.47189
237.88        65.52939
238.34        64.77617
238.80        65.10294
239.26        66.90373
239.71        70.72052
240.17        76.30694
240.63         82.7047
241.08        89.02112
241.54        94.40707
242.00        99.44332
242.46        106.3763
242.91         117.735
243.37         134.486
243.83        157.3118
244.28        177.4352
244.74        179.6337
245.20        162.8129
245.66        141.0562
246.11        126.9719
246.57        121.3518
247.03        120.9324
247.48        120.2509
247.94        111.8044
248.40         98.5918
248.85        85.96278
249.31        77.54896
249.77        74.58319
250.22        76.08595
250.68        81.10513
251.14         88.8476
251.59         95.0056
252.05        96.53236
252.51        95.50417
252.96        92.21896
253.42        87.81651
253.88        83.09562
254.33        77.74182
254.79         74.9838
255.25        77.32567
255.70        83.96902
256.16        93.67264
256.62        101.8532
257.07        101.6948
257.53        95.25607
257.99        86.91634
258.44        80.06012
258.90        77.70348
259.35        78.38772
259.81        80.83147
260.27        83.24179
260.72        83.54489
261.18        81.96834
261.63        79.17525
262.09        76.50719
262.55        74.65549
263.00        73.51833
263.46          72.936
263.91        72.21317
264.37        70.94241
264.83        69.08358
265.28        66.87397
265.74        64.97436
266.19        63.80078
266.65        63.44621
267.11        63.56655
267.56        63.74917
268.02        63.37164
268.47        62.27802
268.93        60.74092
269.38        58.97556
269.84        57.38139
270.30        56.07194
270.75        54.91674
271.21        53.96654
271.66        53.22264
272.12        52.65295
272.57        52.22387
273.03        51.78196
273.48        51.04623
273.94        50.03474
274.39        48.79733
274.85        47.56554
275.31        46.49728
275.76         45.6091
276.22          44.894
276.67        44.26571
277.13        43.72724
277.58        43.18759
278.04        42.68085
278.49        42.11732
278.95        41.50594
279.40        40.79005
279.86        40.07026
280.31        39.28674
280.77        38.49553
281.22        37.67331
281.68        36.89357
282.13        36.20267
282.59        35.77111
283.04        35.56169
283.50        35.55132
283.95        35.58782
284.41        35.45135
284.86        35.09677
285.32        34.63163
285.77        34.17881
286.22         33.9904
286.68        34.09675
287.13        34.35514
287.59        34.65816
288.04        34.78744
288.50        34.71574
288.95        34.48991
289.41        34.17812
289.86        33.79431
290.32         33.4211
290.77        33.04797
291.22        32.77475
291.68        32.73088
292.13        32.93075
292.59        33.37411
293.04        33.99599
293.50        34.70116
293.95        35.45111
294.40        36.28193
294.86        37.22129
295.31        38.30329
295.77        39.54164
296.22        40.88777
296.68        42.34481
297.13        43.90533
297.58        45.56652
298.04        47.33268
298.49        49.14576
298.95        50.93608
299.40         52.6731
299.85        54.37396
300.31        56.11137
300.76        57.97501
301.21        59.98909
301.67        62.13883
302.12        64.30577
302.58        66.40543
303.03        68.36889
303.48        70.26338
303.94        72.19054
304.39        74.22417
304.84        76.41428
305.30        78.73701
305.75        81.08069
306.20        83.37551
306.66        85.60754
307.11        87.75232
307.57        89.84599
308.02         91.8229
308.47        93.70309
308.93        95.48634
309.38        97.18877
309.83        98.97664
310.29        100.8742
310.74        102.8329
311.19         104.688
311.65        106.1329
312.10        107.0904
312.55        107.6629
313.00        108.1114
313.46        108.8472
313.91        109.9409
314.36        111.3022
314.82        112.7168
315.27        113.8482
315.72          114.57
316.18        115.0117
316.63        115.2879
317.08        115.6344
317.53        116.1311
317.99        116.7028
318.44        117.2887
318.89        117.7649
319.35        118.0891
319.80        118.2992
320.25        118.4872
320.70        118.7924
321.16        119.2395
321.61        119.8426
322.06        120.4236
322.51        120.7057
322.97        120.6251
323.42        120.2637
323.87        119.9419
324.32        120.2056
324.78        121.1204
325.23        122.6212
325.68        124.1602
326.13        124.8156
326.59        124.3652
327.04        123.1202
327.49        121.7201
327.94        121.2132
328.39        121.8541
328.85        123.2897
329.30        125.1037
329.75        126.2438
330.20         126.364
330.66        125.7578
331.11        124.8939
331.56        124.4279
332.01        124.5849
332.46        125.1257
332.92        125.8111
333.37        126.4411
333.82        126.8382
334.27        127.1501
334.72        127.3968
335.17        127.5691
335.63        127.6879
336.08         127.798
336.53        128.0088
336.98        128.5749
337.43        129.5321
337.88        130.7761
338.34        132.0975
338.79        133.2747
339.24        134.1275
339.69        134.7096
340.14        134.9949
340.59        134.9686
341.05        134.7241
341.50         134.299
341.95        133.8991
342.40        133.8368
342.85        134.1872
343.30        134.8577
343.75        135.7462
344.20        136.6561
344.66        137.4831
345.11        138.2575
345.56        138.8483
346.01        139.0688
346.46         138.931
346.91         138.508
347.36        138.0414
347.81        137.9325
348.26        138.2519
348.72        138.8531
349.17        139.5529
349.62        140.0913
350.07        140.3672
350.52        140.4909
350.97        140.3637
351.42        139.8363
351.87         138.954
352.32        137.7753
352.77        136.6744
353.22         136.204
353.67        136.4366
354.13        137.2022
354.58        138.0743
355.03        138.2759
355.48         137.613
355.93        136.3241
356.38        134.8483
356.83        133.8506
357.28         133.474
357.73        133.4793
358.18        133.5516
358.63        133.1979
359.08        132.2849
359.53        131.0043
359.98         129.557
360.43        128.2073
360.88        127.0361
361.33        125.9618
361.78        124.9191
362.23        123.8254
362.68        122.6757
363.13        121.5298
363.58        120.4513
364.03         119.511
364.48        118.7038
364.93        117.9731
365.38        117.2522
365.83        116.4514
366.28        115.5482
366.73        114.5809
367.18        113.5597
367.63        112.4961
368.08        111.4126
368.53        110.3168
368.98        109.2735
369.43        108.3812
369.88        107.6538
370.33        107.0611
370.78        106.5247
371.23        105.9162
371.68        105.1945
372.13        104.3845
372.58        103.5341
373.03         102.725
373.48        101.9703
373.93        101.2311
374.38        100.4648
374.83        99.61527
375.28        98.67905
375.72        97.67754
376.17        96.70261
376.62        95.76217
377.07        94.88802
377.52        94.10448
377.97         93.4266
378.42         92.8941
378.87        92.50153
379.32        92.17955
379.77        91.95863
380.22        91.88493
380.67        91.91412
381.11        92.04898
381.56        91.97284
382.01        91.27906
382.46        89.96928
382.91        88.27262
383.36        86.64314
383.81        85.69274
384.26        85.50671
384.71        85.86674
385.15        86.48596
385.60        86.85199
386.05        86.78471
386.50        86.42483
386.95        85.81877
387.40        85.05517
387.85        84.22174
388.29        83.25871
388.74        82.40004
389.19        81.76279
389.64        81.36174
390.09        81.15455
390.54        81.04578
390.98        80.86859
391.43        80.62095
391.88        80.27297
392.33        79.87731
392.78        79.65057
393.23         79.5289
393.67        79.14043
394.12        78.62934
394.57         78.2907
395.02        78.14223
395.47        78.02846
395.91         77.8997
396.36         77.6823
396.81        77.38326
397.26         77.0474
397.71        76.69682
398.15        76.34941
398.60        76.10966
399.05        75.80621
399.50        75.47652
399.95        75.46046
400.39        75.65918
400.84        75.30833
401.29        74.50441
401.74        74.23708
402.18        74.42935
402.63        73.98716
403.08        73.07375
403.53        72.70635
403.97         72.9306
404.42        73.24921
404.87        73.47034
405.32        73.47437
405.76        73.19556
406.21        72.71365
406.66        72.17067
407.11        71.83736
407.55        71.80207
408.00        71.83907
408.45        71.89078
408.90        72.11241
409.34        72.30502
409.79        71.88508
410.24        71.04933
410.68        70.59547
411.13        70.59686
411.58        70.63586
412.03         70.6006
412.47        70.49429
412.92        70.26792
413.37        69.96981
413.81        69.69111
414.26        69.62566
414.71        69.77535
415.15        70.10446
415.60        70.48758
416.05        70.78357
416.49        70.93436
416.94        70.96343
417.39         70.9133
417.83        70.83881
418.28        70.77348
418.73        70.70573
419.17        70.64683
419.62        70.62155
420.07        70.62846
420.51        70.63999
420.96        70.68993
421.41         70.7569
421.85        70.80049
422.30        70.91628
422.74        70.97603
423.19        70.82966
423.64        70.47967
424.08        70.14175
424.53        69.90022
424.98        69.80491
425.42         69.8996
425.87        70.20778
426.31         70.5927
426.76        70.69963
427.21        70.52579
427.65        70.30254
428.10        70.10786
428.54        70.09079
428.99        70.32077
429.44         70.3604
429.88        70.36298
430.33        71.24851
430.77        72.55631
431.22        73.05701
431.66        72.65079
432.11        71.86515
432.56        71.06589
433.00        70.78168
433.45        71.19791
433.89        72.03124
434.34        72.51492
434.78        73.49828
435.23        71.94621
435.67        70.47385
436.12        70.51937
436.57        70.70792
437.01        71.39199
437.46        71.55885
437.90        71.19619
438.35        70.92761
438.79        70.87216
439.24          71.091
439.68        71.50526
440.13        71.80827
440.57        72.05838
441.02        72.44152
441.46         72.8655
441.91        73.60228
442.35        74.26069
442.80        73.74367
443.24        72.41219
443.69        72.31714
444.13        73.36894
444.58        73.82227
445.02        73.58428
445.47        73.58736
445.91        73.85171
446.36        74.05626
446.80        74.17484
447.24        74.24029
447.69        74.27422
448.13         74.3322
448.58        74.43791
449.02        74.53812
449.47        74.61472
449.91        74.61379
450.36        74.55294
450.80        74.43078
451.25        74.32369
451.69        74.28616
452.13        74.34658
452.58        74.47395
453.02        74.61226
453.47        74.68076
453.91         74.6428
454.36         74.5281
454.80          74.349
455.24         74.0712
455.69        73.71929
456.13        73.43522
456.58        73.27306
457.02        72.79192
457.46        72.23145
457.91        72.51014
458.35         73.2978
458.79        73.36694
459.24        72.72977
459.68        71.84098
460.13        70.97118
460.57        70.84215
461.01        71.21454
461.46        70.92312
461.90        71.39734
462.34        72.59125
462.79         71.9333
463.23         72.0842
463.68        72.07703
464.12        71.81036
464.56        71.27149
465.01         70.5309
465.45         69.7808
465.89        69.68272
466.34        70.10327
466.78         70.2841
467.22        70.14832
467.67         69.9418
468.11        69.76736
468.55        69.70678
468.99        69.72923
469.44        69.56092
469.88        69.21473
470.32        68.91627
470.77        68.71463
471.21        68.56602
471.65        68.47006
472.10        68.44476
472.54        68.47158
472.98        68.48583
473.42        68.45404
473.87        68.53063
474.31        68.60412
474.75        68.25492
475.20        67.64464
475.64        67.51961
476.08         67.8722
476.52        67.82615
476.97        67.29694
477.41        67.35418
477.85        67.65884
478.29        66.85306
478.74        67.55486
479.18        68.03949
479.62        67.76656
480.06        67.81168
480.50         67.7651
480.95        67.74355
481.39        67.74805
481.83        67.22417
482.27        67.25501
482.72        67.36903
483.16        67.15032
483.60        67.20019
484.04        67.30949
484.48        67.56161
484.93        67.72054
485.37        67.90011
485.81        66.90003
486.25        67.11996
486.69        69.41163
487.14         70.1207
487.58        67.69749
488.02        68.09783
488.46        66.61729
488.90        66.25013
489.34         67.4522
489.79        68.31739
490.23        67.42693
490.67        66.87369
491.11        66.40226
491.55        66.24147
491.99        66.34101
492.43        66.22472
492.88         65.9173
493.32        65.87781
493.76        66.10338
494.20        66.26543
494.64        66.31831
495.08        66.42238
495.52        66.53623
495.96        66.42271
496.41        66.13852
496.85         66.1003
497.29         66.1733
497.73        66.15315
498.17        65.27824
498.61        65.16402
499.05        65.52161
499.49        65.67197
499.93        65.37988
500.37        65.44409
500.82        65.76295
501.26        65.92606
501.70        65.90545
502.14        65.89523
502.58         65.9324
503.02        65.98251
503.46        66.05502
503.90        66.17072
504.34        66.25653
504.78        66.19783
505.22        65.96874
505.66        65.59524
506.10        65.23148
506.54        65.07678
506.98        65.06567
507.42        65.48927
507.86         65.2756
508.30        65.09639
508.74        65.24466
509.18        65.09429
509.62        64.88754
510.06        64.81479
510.50         64.9148
510.94        65.10374
511.38        65.30062
511.82        65.39443
512.26        65.35506
512.70        65.22857
513.14        65.07642
513.58        64.99402
514.02        65.01005
514.46        65.08906
514.90        65.20235
515.34        65.30612
515.78        65.37734
516.22        65.42652
516.66        65.44118
517.10        65.39933
517.54        65.30337
517.98        65.16385
518.42        65.00428
518.86        64.86588
519.30        64.76452
519.74        64.69262
520.18        64.65738
520.62        64.66336
521.06        64.70805
521.50        64.79636
521.93        64.89783
522.37        64.94132
522.81        64.92101
523.25        64.84418
523.69        64.76736
524.13        64.78432
524.57        64.90443
525.01        65.08961
525.45        65.25853
525.89        65.28053
526.32        65.12321
526.76        64.85532
527.20        64.54652
527.64        64.30996
528.08        64.18344
528.52        64.13456
528.96        64.15076
529.40        64.21015
529.83        64.29394
530.27        64.41653
530.71         64.5397
531.15         64.6076
531.59        64.60777
532.03        64.54227
532.46        64.44266
532.90        64.41039
533.34        64.45178
533.78        64.50537
534.22        64.52551
534.66        64.52059
535.09        64.43445
535.53        64.14851
535.97        63.74906
536.41        63.53518
536.85        63.54566
537.28        63.63879
537.72        63.77816
538.16        63.95184
538.60        64.12695
539.04         64.3008
539.47        64.43009
539.91        64.49213
540.35        64.47013
540.79        64.37301
541.22        64.23757
541.66        64.14915
542.10        64.12202
542.54        64.13851
542.97        64.16207
543.41        64.16141
543.85        64.11893
544.29        64.06007
544.72        63.98917
545.16        63.94971
545.60        63.93951
546.04        63.94989
546.47        63.98869
546.91          64.078
547.35        64.20927
547.79        64.33857
548.22        64.42564
548.66        64.50993
549.10        64.52958
549.53        64.41718
549.97        64.20406
550.41        63.96917
550.84        63.81375
551.28        63.81998
551.72        63.91298
552.15        64.04684
552.59        64.27536
553.03        63.69159
553.46        64.22878
553.90        64.13479
554.34        64.09734
554.77        64.04713
555.21        64.07361
555.65        63.98949
556.08        64.11448
556.52        64.13666
556.96        64.12006
557.39        64.15413
557.83        64.19766
558.27        63.94152
558.70        63.46497
559.14        63.27578
559.57        63.36535
560.01        63.34594
560.45        63.24709
560.88        63.43311
561.32        63.83832
561.75        64.05239
562.19        64.06232
562.63        63.95212
563.06        63.80593
563.50        63.88507
563.93        64.09463
564.37        64.15323
564.80        64.07131
565.24         63.9607
565.68        63.70618
566.11        64.28397
566.55        63.44022
566.98        63.36849
567.42        63.48646
567.85        63.56343
568.29        63.86221
568.72        64.17482
569.16        64.63258
569.60        64.81409
570.03        64.87275
570.47        65.22486
570.90        65.62903
571.34        64.80891
571.77         65.0823
572.21        65.82807
572.64        65.39146
573.08        65.77336
573.51        64.80971
573.95        64.77247
574.38        65.31966
574.82        65.67854
