SpectraSmart Spectrum 2.9.0.0
--------- Device Information -----------
Spectrum Name :  反射率_0
Saving Time :  2024/04/26 23:58:23
Spectro-Module Model Name : SE2030-DUVN
Spectro-Module Serial Number : OS361AC55029948
Wavelength Start : 200
Wavelength End : 1025
Wavelength Unit : Wavelength(nm)
Spectrum Unit : Reflectance(%)
-----------Spectrum Setting ------------
Integration Time : 20ms
Average : 10
Boxcar : 0
Background removal :  enabled
linearity correction :  enabled
SC :  disabled
Intensity correction :  disabled
DWT denoise :  enabled
savitzky-golay :  disabled
FFT :  disabled
Running average :  disabled
Kalman :  disabled
High pass :  disabled
---------------BEGIN--------------------
Wavelength(nm)             Reflectance(%)
200.29               0
200.75        60.24914
201.21        54.08247
201.67         49.2141
202.13        47.75233
202.58        49.64231
203.04        54.79198
203.50        62.82365
203.96        70.52711
204.42        75.03144
204.88        76.44767
205.34        74.47712
205.80        70.33389
206.26        65.44985
206.72        59.83614
207.18        55.49826
207.64         53.9387
208.10        55.05958
208.55        59.79239
209.01        66.63927
209.47         68.6169
209.93        63.47464
210.39        56.18039
210.85        51.58789
211.31         52.4541
211.77        59.81604
212.23        78.79163
212.69        127.5909
213.14        210.0353
213.60        206.7714
214.06        149.2403
214.52        109.7568
214.98        90.86312
215.44        81.24671
215.90        74.00929
216.36        68.96358
216.81         67.1953
217.27        69.25674
217.73        77.03468
218.19        88.81667
218.65        92.36889
219.11        84.01329
219.57        71.84015
220.02         63.8019
220.48        64.17322
220.94        72.01781
221.40        87.56623
221.86        109.8092
222.32        122.8571
222.77        113.9745
223.23        94.92276
223.69        76.22263
224.15        63.08313
224.61        54.73889
225.06        48.67465
225.52         45.2583
225.98        44.83776
226.44        46.78333
226.90        50.73928
227.36        54.68687
227.81        55.14081
228.27         51.8796
228.73        46.33987
229.19        41.16509
229.65         39.3523
230.10        40.99892
230.56        44.98718
231.02        49.40549
231.48         51.1997
231.93        49.79944
232.39         46.7805
232.85         43.7106
233.31        42.59431
233.77        43.67907
234.22        46.17166
234.68        49.25315
235.14        51.82002
235.60         53.4783
236.05        54.68631
236.51        55.45303
236.97        55.77221
237.43        55.73418
237.88        55.24913
238.34         54.7844
238.80        55.52074
239.26        57.98343
239.71        62.77742
240.17        69.39236
240.63        75.88641
241.08        80.79881
241.54        83.31941
242.00        85.13348
242.46        90.71884
242.91        103.6659
243.37        125.8583
243.83         158.011
244.28        185.8182
244.74        187.4128
245.20        162.8557
245.66        131.5741
246.11        110.8298
246.57        101.5372
247.03        98.55319
247.48         97.9732
247.94        94.42407
248.40        88.47237
248.85        83.15858
249.31        79.77813
249.77        78.04082
250.22        77.38527
250.68        77.05397
251.14        77.31841
251.59        78.99247
252.05        82.01784
252.51        85.99256
252.96        88.23182
253.42        87.02499
253.88        83.10398
254.33        77.48243
254.79        73.64668
255.25        74.16013
255.70        78.45689
256.16        85.25714
256.62        91.06753
257.07        90.79554
257.53        85.95985
257.99        79.73687
258.44        74.46851
258.90        72.40511
259.35        72.39121
259.81        73.63562
260.27        74.81944
260.72        74.47831
261.18        72.87901
261.63        70.42649
262.09        68.22387
262.55        66.81026
263.00         66.0423
263.46         65.7742
263.91        65.33157
264.37        64.26773
264.83        62.54763
265.28        60.42242
265.74        58.51957
266.19        57.25114
266.65        56.71701
267.11        56.59793
267.56        56.56472
268.02        56.11829
268.47        55.13612
268.93        53.86007
269.38        52.40981
269.84        51.02932
270.30        49.79293
270.75        48.59391
271.21        47.58412
271.66        46.92919
272.12        46.62045
272.57        46.58522
273.03        46.49952
273.48        45.82218
273.94        44.54241
274.39        42.82493
274.85        41.14774
275.31        40.02179
275.76        39.49784
276.22        39.41666
276.67        39.45212
277.13        39.24677
277.58        38.65896
278.04        37.85785
278.49        36.94083
278.95        36.17678
279.40        35.56949
279.86        35.10044
280.31        34.62468
280.77        34.06742
281.22         33.3766
281.68        32.67463
282.13        32.01804
282.59        31.56892
283.04        31.30809
283.50        31.20258
283.95        31.15676
284.41        31.04323
284.86        30.82753
285.32        30.58186
285.77        30.35349
286.22        30.27303
286.68        30.36179
287.13        30.53697
287.59        30.75232
288.04        30.89197
288.50        30.94439
288.95        30.90109
289.41        30.82156
289.86        30.71727
290.32        30.64494
290.77        30.60349
291.22        30.59341
291.68        30.59546
292.13        30.62109
292.59        30.71932
293.04        30.99799
293.50        31.63864
293.95        32.65102
294.40        33.97289
294.86        35.44448
295.31        36.80328
295.77        37.98966
296.22        39.05607
296.68        40.12855
297.13        41.39228
297.58         42.9071
298.04        44.61564
298.49        46.42515
298.95        48.21506
299.40        49.92904
299.85        51.60267
300.31        53.29972
300.76        55.08781
301.21        56.98753
301.67        58.98738
302.12        60.96691
302.58        62.84388
303.03        64.55701
303.48        66.16703
303.94        67.81258
304.39        69.62563
304.84        71.65678
305.30         73.8681
305.75         76.0729
306.20        78.08211
306.66        79.86723
307.11        81.44734
307.57        82.97115
308.02        84.55035
308.47        86.23812
308.93        87.98808
309.38        89.69238
309.83         91.3157
310.29        92.84409
310.74        94.28748
311.19        95.62969
311.65        96.81002
312.10         97.7944
312.55        98.58537
313.00        99.26563
313.46        99.97914
313.91        100.7426
314.36        101.5633
314.82        102.3556
315.27         102.994
315.72        103.4337
316.18        103.7412
316.63        103.9989
317.08        104.3876
317.53        104.9489
317.99        105.6188
318.44        106.3036
318.89        106.8178
319.35        107.1087
319.80        107.2345
320.25        107.2934
320.70        107.4477
321.16        107.7388
321.61         108.158
322.06         108.608
322.51        108.9397
322.97        109.1003
323.42        109.1396
323.87        109.1905
324.32        109.4893
324.78        110.0426
325.23        110.8555
325.68        111.6377
326.13        111.9239
326.59        111.6161
327.04         110.892
327.49        110.1185
327.94        109.9072
328.39        110.4037
328.85        111.3925
329.30        112.6524
329.75        113.5115
330.20        113.7489
330.66        113.5271
331.11        113.1549
331.56        113.0522
332.01        113.3596
332.46        113.9159
332.92        114.5294
333.37        115.0563
333.82        115.3631
334.27        115.5722
334.72        115.7228
335.17        115.8503
335.63        115.9863
336.08        116.1671
336.53        116.4898
336.98        117.1709
337.43        118.2278
337.88        119.5637
338.34        120.9454
338.79        122.1034
339.24        122.8598
339.69        123.2799
340.14        123.3967
340.59         123.297
341.05        123.0914
341.50         122.784
341.95        122.5288
342.40        122.5515
342.85        122.9104
343.30          123.56
343.75        124.4045
344.20        125.2565
344.66        126.0289
345.11        126.7347
345.56        127.3255
346.01         127.748
346.46        128.0112
346.91        128.1315
347.36        128.1752
347.81        128.2707
348.26        128.4434
348.72        128.6434
349.17        128.8641
349.62         129.127
350.07        129.4113
350.52        129.7408
350.97        129.9319
351.42          129.69
351.87        129.0033
352.32         127.983
352.77        127.0008
353.22        126.5992
353.67        126.8688
354.13        127.6428
354.58        128.5424
355.03        128.8855
355.48        128.4875
355.93        127.5384
356.38        126.4341
356.83        125.7765
357.28        125.6822
357.73        125.9335
358.18        126.1675
358.63        125.8135
359.08         124.748
359.53        123.2032
359.98        121.5091
360.43        120.1257
360.88        119.1701
361.33        118.5007
361.78        117.9432
362.23         117.229
362.68        116.2963
363.13        115.2623
363.58        114.2364
364.03        113.3655
364.48        112.6741
364.93        112.0711
365.38        111.5015
365.83        110.9021
366.28        110.2405
366.73         109.545
367.18        108.7751
367.63        107.8564
368.08        106.7997
368.53         105.648
368.98        104.5115
369.43        103.5625
369.88        102.8452
370.33        102.3106
370.78        101.8903
371.23        101.4688
371.68        100.9907
372.13        100.4669
372.58        99.89225
373.03        99.26138
373.48        98.57192
373.93        97.81885
374.38        96.99126
374.83        96.09193
375.28        95.14324
375.72        94.14381
376.17        93.22385
376.62         92.4526
377.07        91.85544
377.52        91.43951
377.97        91.10587
378.42        90.70312
378.87         90.1975
379.32        89.59099
379.77        89.06216
380.22        88.87786
380.67        89.04839
381.11         89.5162
381.56        89.86879
382.01        89.51898
382.46        88.39203
382.91        86.75174
383.36        85.11914
383.81        84.20538
384.26        84.12199
384.71        84.62925
385.15        85.36031
385.60        85.67822
386.05        85.39352
386.50        84.70255
386.95        83.81286
387.40        83.04828
387.85        82.51895
388.29        82.06636
388.74        81.73067
389.19        81.36671
389.64        80.94659
390.09        80.51824
390.54        80.11797
390.98        79.78899
391.43         79.5778
391.88        79.39324
392.33        79.20679
392.78        79.03602
393.23        78.81205
393.67        78.44029
394.12        78.03328
394.57        77.49907
395.02        76.97907
395.47        76.93621
395.91        77.26357
396.36        77.24681
396.81        76.85764
397.26         76.5162
397.71        76.23061
398.15        75.88442
398.60        75.59246
399.05        75.11022
399.50        74.59101
399.95        74.74281
400.39        75.36639
400.84        75.22292
401.29        74.35578
401.74        73.89599
402.18        73.90427
402.63         73.6554
403.08        73.22402
403.53        73.05736
403.97        73.16164
404.42        73.39043
404.87        73.61446
405.32        73.60198
405.76        73.29348
406.21        72.90909
406.66        72.52401
407.11        72.04294
407.55        71.65589
408.00        71.75741
408.45        72.24236
408.90        72.59868
409.34        72.59494
409.79         72.0767
410.24        71.27938
410.68        70.85092
411.13        70.87547
411.58        70.99184
412.03        71.07028
412.47          71.063
412.92         70.9032
413.37        70.64185
413.81        70.38161
414.26        70.34042
414.71        70.52456
415.15        70.89056
415.60        71.29279
416.05        71.55882
416.49        71.62887
416.94        71.54328
417.39         71.3819
417.83          71.256
418.28          71.208
418.73        71.20247
419.17        71.22335
419.62        71.25035
420.07        71.26884
420.51        71.27138
420.96        71.28549
421.41        71.29261
421.85        71.26731
422.30        71.27364
422.74        71.23692
423.19        71.17561
423.64        71.06077
424.08        70.88195
424.53        70.71031
424.98        70.75992
425.42        71.06394
425.87        71.52228
426.31        71.98798
426.76        72.15242
427.21        72.01728
427.65        71.81167
428.10        71.59963
428.54        71.49938
428.99         71.5844
429.44        71.44331
429.88        71.26585
430.33        72.00919
430.77        73.21376
431.22        73.67904
431.66        73.29063
432.11        72.39297
432.56         71.4143
433.00        71.32643
433.45        72.29428
433.89        73.20486
434.34        73.53546
434.78        74.52275
435.23        73.00443
435.67        71.00876
436.12        72.10957
436.57        72.47215
437.01        73.05177
437.46        73.35885
437.90        73.42505
438.35        72.52638
438.79        72.69543
439.24        72.58524
439.68        72.74097
440.13        73.03859
440.57        73.44806
441.02        73.65376
441.46        73.59039
441.91        73.97919
442.35        74.57304
442.80        74.00588
443.24        73.26794
443.69        73.29096
444.13        74.18313
444.58        74.57391
445.02        74.40969
445.47        74.45557
445.91        74.74619
446.36        75.03078
446.80        75.28739
447.24        75.57077
447.69        75.83395
448.13        75.98497
448.58        76.02372
449.02        75.94823
449.47        75.81467
449.91        75.67995
450.36        75.59296
450.80         75.5213
451.25        75.48255
451.69        75.44048
452.13        75.40668
452.58        75.37528
453.02        75.34693
453.47        75.35359
453.91        75.38802
454.36        75.34692
454.80        75.36542
455.24         75.1824
455.69         74.8559
456.13        74.51888
456.58        74.28813
457.02        73.87555
457.46        73.49995
457.91        73.90895
458.35        74.75083
458.79        74.85288
459.24        74.20193
459.68        73.28967
460.13        72.46734
460.57        72.12929
461.01        72.44138
461.46        72.47346
461.90        73.18933
462.34        73.86906
462.79        73.55811
463.23        73.70909
463.68        73.84368
464.12        73.59833
464.56        72.97961
465.01        72.14559
465.45        71.31748
465.89        71.23647
466.34        71.71277
466.78        71.83328
467.22        71.61935
467.67        71.15292
468.11        71.52453
468.55        71.62793
468.99        71.68679
469.44        71.58006
469.88        71.31836
470.32        71.01266
470.77        70.72492
471.21        70.51949
471.65        70.40871
472.10        70.38028
472.54        70.43459
472.98        70.50281
473.42        70.54098
473.87        70.79691
474.31        71.08496
474.75         70.6611
475.20        69.76711
475.64         69.6512
476.08        70.28455
476.52        70.29749
476.97        69.57319
477.41        69.74519
477.85        70.03718
478.29        69.17242
478.74        69.58214
479.18        70.22308
479.62        69.98544
480.06         70.1483
480.50        70.17668
480.95        70.06871
481.39        69.78103
481.83        69.92966
482.27        69.63104
482.72        69.77202
483.16        69.71615
483.60        69.75636
484.04        69.76919
484.48        69.84315
484.93        69.86886
485.37        69.89096
485.81        69.23786
486.25        69.36187
486.69        71.12838
487.14        71.69118
487.58         69.9838
488.02        70.11047
488.46        68.42429
488.90        68.58286
489.34        70.37757
489.79        70.81567
490.23        70.06412
490.67         69.4253
491.11         69.1697
491.55        69.02344
491.99        68.96384
492.43        68.77642
492.88        68.48297
493.32        68.43583
493.76        68.62534
494.20        68.76299
494.64        68.80479
495.08        68.89695
495.52        68.99506
495.96        68.88724
496.41        68.62116
496.85        68.53758
497.29        68.53291
497.73        68.56669
498.17        67.83941
498.61        67.83031
499.05          68.228
499.49        68.49464
499.93         68.3392
500.37        68.39719
500.82        68.58607
501.26        68.62104
501.70        68.53033
502.14        68.58997
502.58        68.76673
503.02        68.90121
503.46        68.97084
503.90        69.08715
504.34        69.20107
504.78        69.16671
505.22        68.95671
505.66         68.6756
506.10         68.4239
506.54         68.1771
506.98        67.92983
507.42        68.37858
507.86        68.19757
508.30        68.31351
508.74          68.317
509.18        68.26968
509.62        68.18012
510.06         68.0877
510.50        68.01891
510.94        67.94701
511.38        67.88706
511.82        67.86493
512.26        67.88361
512.70        67.94083
513.14        68.01451
513.58        68.06472
514.02        68.08133
514.46        68.07255
514.90        68.05837
515.34        68.07358
515.78        68.12373
516.22        68.19258
516.66        68.25905
517.10        68.29095
517.54        68.28025
517.98        68.24085
518.42        68.18236
518.86        68.11977
519.30        68.06115
519.74         68.0015
520.18        67.95341
520.62        67.93473
521.06         67.9489
521.50         67.9983
521.93        68.06038
522.37        68.07489
522.81        68.04068
523.25        67.96846
523.69        67.90348
524.13         67.9194
524.57        68.02216
525.01        68.17675
525.45        68.32282
525.89        68.36347
526.32        68.26982
526.76        68.09878
527.20        67.88329
527.64        67.68208
528.08        67.52193
528.52        67.38509
528.96         67.3006
529.40        67.31136
529.83        67.41286
530.27        67.60322
530.71        67.79948
531.15        67.87417
531.59        67.80126
532.03         67.6083
532.46        67.38065
532.90        67.30417
533.34        67.40149
533.78        67.57986
534.22        67.73975
534.66        67.81236
535.09        67.72016
535.53        67.36244
535.97        66.86893
536.41        66.61442
536.85         66.6536
537.28        66.81544
537.72        67.03112
538.16        67.24062
538.60        67.39771
539.04         67.5192
539.47        67.58189
539.91         67.5934
540.35        67.54564
540.79        67.43859
541.22        67.30437
541.66        67.21814
542.10        67.19273
542.54        67.22686
542.97        67.27769
543.41        67.28737
543.85        67.23786
544.29        67.18408
544.72        67.14137
545.16         67.1164
545.60         67.1047
546.04        67.19792
546.47        67.34754
546.91        67.31476
547.35        67.17062
547.79        67.23675
548.22        67.48753
548.66        67.73022
549.10        67.92883
549.53        67.83871
549.97        67.53365
550.41        67.26773
550.84        67.15172
551.28        67.13234
551.72        67.13831
552.15        67.21709
552.59        67.43079
553.03        66.82226
553.46        67.41141
553.90        67.33649
554.34        67.15935
554.77        67.29507
555.21        67.16821
555.65        67.15442
556.08        67.61475
556.52        67.68201
556.96        67.52985
557.39        67.51881
557.83        67.63507
558.27        67.44683
558.70        67.00549
559.14        66.79395
559.57        66.81087
560.01        66.75648
560.45        66.66763
560.88        66.83109
561.32        67.19324
561.75        67.43406
562.19        67.51988
562.63        67.41244
563.06        67.20415
563.50        67.26588
563.93        67.49203
564.37        67.53892
564.80        67.42293
565.24        67.23582
565.68         66.8693
566.11          67.513
566.55        66.76033
566.98        66.56181
567.42        66.35664
567.85        66.55707
568.29        67.10188
568.72        67.45387
569.16        67.64252
569.60        68.01436
570.03        68.07957
570.47        68.35123
570.90        68.77234
571.34        67.93855
571.77        68.51062
572.21        68.76898
572.64        68.62795
573.08        68.73974
573.51        67.96553
573.95        67.97117
574.38        68.65626
574.82        68.39139
