SpectraSmart Spectrum 2.9.0.0
--------- Device Information -----------
Spectrum Name :  反射率_0
Saving Time :  2024/04/26 23:58:48
Spectro-Module Model Name : SE2030-DUVN
Spectro-Module Serial Number : OS361AC55029948
Wavelength Start : 200
Wavelength End : 1025
Wavelength Unit : Wavelength(nm)
Spectrum Unit : Reflectance(%)
-----------Spectrum Setting ------------
Integration Time : 20ms
Average : 10
Boxcar : 0
Background removal :  enabled
linearity correction :  enabled
SC :  disabled
Intensity correction :  disabled
DWT denoise :  enabled
savitzky-golay :  disabled
FFT :  disabled
Running average :  disabled
Kalman :  disabled
High pass :  disabled
---------------BEGIN--------------------
Wavelength(nm)             Reflectance(%)
200.29               0
200.75        49.34928
201.21        46.71353
201.67        44.77834
202.13        43.53643
202.58         42.8176
203.04        42.79195
203.50        44.29398
203.96        48.82187
204.42        56.75784
204.88        67.48547
205.34        77.62598
205.80        81.88922
206.26        79.27351
206.72         71.6669
207.18        63.53513
207.64        58.46704
208.10        56.47989
208.55        57.34153
209.01        59.29914
209.47        57.82894
209.93        52.68999
210.39        47.69469
210.85         45.4872
211.31        47.60025
211.77        55.24028
212.23        73.67185
212.69        120.2899
213.14        199.1271
213.60        196.5693
214.06        141.6301
214.52        103.8675
214.98        86.11118
215.44        77.41138
215.90        71.00915
216.36         66.6853
216.81        65.27248
217.27         67.3057
217.73        75.03825
218.19        86.24565
218.65         87.8866
219.11        77.13023
219.57        62.86564
220.02        54.24615
220.48        56.10678
220.94        67.73949
221.40        90.51711
221.86        122.7261
222.32        140.5836
222.77        126.2368
223.23         96.8178
223.69        70.15237
224.15        55.61449
224.61        50.60066
225.06        49.90984
225.52        51.29505
225.98        52.59598
226.44        53.26799
226.90        54.10554
227.36        54.63832
227.81         53.8888
228.27        52.03697
228.73        49.31099
229.19        46.82652
229.65        45.92586
230.10        46.60319
230.56         48.4476
231.02        50.44778
231.48        50.98418
231.93        49.77784
232.39        47.74204
232.85        45.80352
233.31        45.20504
233.77        46.06036
234.22        47.91899
234.68        50.13801
235.14        51.83435
235.60        52.76011
236.05        53.30412
236.51        53.64769
236.97        54.17266
237.43        55.05195
237.88        56.04735
238.34        57.40948
238.80        59.99477
239.26        64.25648
239.71        71.05112
240.17        79.46507
240.63        86.44624
241.08        89.91308
241.54        88.86256
242.00        86.55209
242.46        90.69629
242.91        106.6697
243.37        137.8258
243.83        185.7444
244.28        229.4343
244.74        236.1871
245.20        204.6962
245.66        161.1579
246.11        130.1717
246.57        113.5659
247.03        104.4314
247.48         98.9986
247.94        93.29496
248.40        87.66445
248.85        83.89877
249.31        82.43677
249.77        82.55078
250.22         83.7365
250.68        85.55871
251.14        87.36152
251.59        87.39449
252.05        85.29655
252.51        82.73401
252.96        79.83832
253.42        77.09554
253.88        74.60425
254.33        71.91112
254.79        71.23759
255.25        74.11952
255.70        79.96025
256.16        88.03244
256.62        94.50954
257.07        93.81979
257.53        87.91402
257.99        80.38544
258.44        74.31731
258.90        72.51782
259.35        73.56036
259.81        76.27177
260.27        78.69373
260.72        78.52012
261.18        76.10294
261.63        72.34709
262.09        68.90202
262.55        66.82463
263.00        65.97285
263.46        65.96328
263.91         65.8849
264.37        64.99817
264.83        63.23535
265.28        60.97944
265.74        58.98957
266.19        57.83625
266.65        57.63601
267.11        57.98474
267.56        58.45841
268.02        58.41628
268.47        57.67474
268.93        56.50365
269.38        55.05273
269.84        53.61974
270.30        52.29863
270.75        50.97042
271.21        49.77206
271.66        48.84656
272.12        48.19355
272.57        47.76391
273.03        47.29969
273.48        46.35562
273.94        44.94427
274.39        43.20576
274.85        41.54325
275.31        40.35639
275.76        39.67999
276.22        39.39393
276.67        39.23882
277.13        38.95398
277.58        38.41126
278.04        37.73745
278.49        36.97141
278.95        36.29973
279.40        35.70704
279.86         35.2027
280.31        34.67929
280.77        34.11402
281.22        33.46474
281.68        32.83467
282.13         32.2533
282.59        31.84864
283.04        31.59724
283.50        31.48037
283.95        31.42867
284.41        31.35341
284.86        31.22482
285.32        31.09755
285.77        30.98505
286.22        30.97532
286.68        31.08055
287.13        31.22672
287.59        31.39625
288.04        31.51603
288.50        31.58397
288.95        31.58123
289.41        31.53233
289.86        31.39569
290.32        31.22653
290.77        31.04693
291.22        30.91259
291.68        30.88329
292.13        30.98414
292.59        31.23962
293.04        31.70051
293.50        32.45816
293.95        33.49996
294.40        34.78881
294.86        36.21811
295.31        37.60897
295.77        38.91903
296.22        40.17023
296.68        41.43494
297.13        42.81713
297.58        44.35952
298.04        46.03327
298.49        47.79504
298.95        49.60041
299.40        51.41143
299.85        53.23876
300.31        55.10381
300.76        57.01014
301.21        58.96239
301.67        60.96862
302.12        62.94504
302.58        64.86411
303.03         66.6768
303.48         68.4324
303.94        70.22569
304.39        72.12307
304.84        74.16482
305.30        76.32471
305.75        78.47989
306.20         80.5433
306.66        82.49067
307.11        84.29453
307.57        85.99759
308.02        87.54903
308.47        88.98283
308.93         90.3234
309.38        91.57657
309.83        92.87626
310.29        94.25957
310.74        95.69807
311.19        97.12112
311.65        98.37552
312.10        99.39472
312.55        100.2025
313.00        100.9168
313.46        101.7343
313.91        102.6715
314.36        103.7024
314.82        104.6708
315.27        105.3457
315.72        105.6624
316.18        105.7279
316.63        105.7059
317.08        105.9007
317.53        106.3876
317.99        107.0701
318.44        107.8064
318.89        108.3287
319.35        108.5593
319.80        108.5852
320.25        108.5317
320.70         108.601
321.16        108.8471
321.61        109.2455
322.06        109.6847
322.51         109.996
322.97        110.1215
323.42         110.121
323.87        110.1401
324.32        110.4334
324.78        111.0111
325.23        111.8707
325.68        112.7085
326.13        113.0377
326.59        112.7506
327.04        112.0274
327.49        111.2399
327.94        111.0101
328.39        111.4844
328.85        112.4402
329.30         113.653
329.75        114.4448
330.20        114.5976
330.66        114.2866
331.11        113.8232
331.56        113.6256
332.01        113.8393
332.46        114.3057
332.92        114.8582
333.37         115.396
333.82        115.7886
334.27        116.1371
334.72        116.4348
335.17        116.6422
335.63        116.7682
336.08        116.8701
336.53         117.068
336.98        117.6216
337.43        118.5694
337.88         119.806
338.34        121.1154
338.79        122.2545
339.24          123.05
339.69        123.5679
340.14        123.8089
340.59        123.7998
341.05         123.637
341.50         123.336
341.95        123.0793
342.40         123.146
342.85        123.5969
343.30        124.3515
343.75        125.2893
344.20        126.1839
344.66        126.9371
345.11        127.5954
345.56        128.0876
346.01        128.3217
346.46        128.3254
346.91        128.1377
347.36        127.9428
347.81        128.0506
348.26        128.5035
348.72        129.1788
349.17        129.9097
349.62        130.4628
350.07        130.7501
350.52        130.8702
350.97          130.74
351.42        130.2385
351.87        129.4152
352.32        128.3277
352.77        127.3285
353.22        126.9308
353.67        127.2095
354.13        128.0232
354.58         128.968
355.03        129.3063
355.48        128.8508
355.93        127.8095
356.38        126.6286
356.83        125.9942
357.28        126.0357
357.73        126.5005
358.18        126.9869
358.63        126.8572
359.08        125.9577
359.53        124.5383
359.98        122.9162
360.43        121.5358
360.88        120.5222
361.33        119.7352
361.78        119.0526
362.23        118.2944
362.68        117.4101
363.13        116.4844
363.58        115.5624
364.03        114.6855
364.48        113.8566
364.93        113.0311
365.38        112.1923
365.83          111.34
366.28        110.4783
366.73         109.624
367.18        108.7693
367.63        107.8895
368.08        106.9888
368.53        106.0859
368.98        105.2202
369.43        104.4486
369.88        103.7815
370.33        103.1966
370.78        102.6624
371.23        102.1327
371.68        101.5854
372.13        101.0196
372.58        100.4329
373.03        99.82465
373.48        99.18394
373.93        98.49364
374.38        97.74296
374.83        96.92765
375.28        96.05959
375.72        95.14414
376.17        94.25135
376.62        93.36077
377.07        92.50068
377.52        91.71123
377.97        91.03123
378.42        90.53317
378.87        90.22017
379.32        90.01331
379.77         89.9222
380.22        89.96488
380.67        90.09241
381.11        90.31478
381.56        90.33454
382.01        89.77134
382.46        88.62399
382.91        87.10224
383.36         85.6322
383.81        84.79382
384.26        84.66918
384.71        85.05145
385.15        85.67395
385.60         86.0565
386.05         86.0294
386.50        85.72781
386.95        85.18361
387.40        84.46072
387.85        83.64359
388.29        82.68406
388.74        81.83305
389.19        81.22983
389.64        80.89053
390.09        80.76697
390.54        80.74344
390.98        80.59721
391.43        80.30994
391.88        79.92867
392.33        79.52614
392.78        79.18531
393.23        78.92235
393.67        78.72718
394.12        78.61451
394.57        78.31429
395.02         77.8759
395.47        77.63658
395.91        77.59669
396.36        77.42907
396.81        77.15018
397.26        76.95574
397.71        76.81202
398.15        76.57524
398.60        76.32639
399.05        75.96381
399.50         75.5794
399.95        75.49001
400.39        75.63052
400.84        75.48559
401.29        75.04704
401.74        74.69355
402.18        74.45559
402.63        74.08967
403.08        73.68787
403.53        73.47626
403.97        73.45789
404.42        73.55201
404.87        73.67361
405.32        73.62399
405.76        73.34871
406.21        73.12798
406.66        72.94013
407.11        72.38177
407.55        71.70647
408.00         71.7007
408.45        72.29852
408.90        72.79782
409.34        72.90068
409.79        72.37593
410.24        71.48394
410.68        71.04224
411.13        71.13799
411.58        71.28278
412.03        71.32816
412.47        71.27319
412.92        71.05598
413.37        70.71754
413.81        70.38733
414.26        70.32361
414.71         70.5396
415.15         70.9832
415.60        71.49169
416.05        71.85683
416.49        72.00066
416.94        71.96853
417.39        71.84555
417.83        71.74767
418.28        71.72697
418.73         71.7594
419.17        71.81178
419.62        71.83571
420.07         71.7983
420.51        71.68768
420.96        71.60426
421.41        71.54749
421.85        71.48539
422.30        71.73664
422.74        72.04697
423.19        71.57584
423.64        70.54066
424.08        70.35479
424.53        71.01672
424.98         71.3211
425.42        71.21336
425.87        71.53115
426.31        72.12881
426.76        72.07073
427.21        71.45927
427.65        71.15521
428.10        71.23195
428.54        71.31657
428.99        71.46346
429.44        71.60644
429.88        71.81103
430.33        72.57103
430.77        73.49385
431.22        73.76622
431.66        73.34466
432.11        72.53291
432.56        71.71624
433.00        71.71287
433.45        72.60091
433.89        73.48296
434.34        73.66057
434.78        74.56341
435.23        73.43055
435.67        71.92793
436.12        71.95096
436.57        72.02825
437.01        72.59736
437.46        73.25204
437.90        72.79245
438.35        72.49332
438.79        72.74207
439.24        72.81537
439.68        72.88132
440.13        73.03855
440.57        73.33549
441.02        73.48982
441.46        73.50524
441.91        74.14232
442.35        74.99361
442.80        74.70522
443.24        73.55811
443.69        73.53417
444.13        74.54205
444.58        74.93839
445.02        74.67206
445.47        74.69803
445.91        75.02918
446.36        75.27026
446.80        75.39427
447.24        75.50526
447.69        75.61061
448.13        75.69891
448.58        75.78793
449.02        75.84521
449.47        75.87442
449.91        75.85398
450.36        75.80734
450.80        75.71812
451.25          75.641
451.69        75.59656
452.13        75.60826
452.58        75.66296
453.02        75.72103
453.47        75.72584
453.91        75.65107
454.36        75.52724
454.80        75.39679
455.24        75.18356
455.69        74.89028
456.13        74.80143
456.58         74.9836
457.02        74.16936
457.46        74.03126
457.91        74.15779
458.35        74.71669
458.79        74.68122
459.24         74.0974
459.68        73.29252
460.13        72.50713
460.57        72.39529
461.01        72.92635
461.46        72.62248
461.90        73.24269
462.34         74.4156
462.79        73.70882
463.23         73.8008
463.68        73.75826
464.12        73.59665
464.56        73.21433
465.01        72.35739
465.45        71.33493
465.89        71.13985
466.34        71.59475
466.78        71.89755
467.22        72.07411
467.67         71.1217
468.11        71.80533
468.55        71.75714
468.99        71.74171
469.44        71.60013
469.88        71.36141
470.32        71.11024
470.77        70.88436
471.21        70.74851
471.65        70.70718
472.10        70.76337
472.54        70.85442
472.98        70.85599
473.42        70.73302
473.87        70.62794
474.31        70.51186
474.75        70.18993
475.20        69.80027
475.64        69.80964
476.08        70.17465
476.52          70.201
476.97        69.79109
477.41        69.67341
477.85        70.06535
478.29         69.0838
478.74        69.63256
479.18        70.36147
479.62        69.90892
480.06        69.98564
480.50        69.89677
480.95        69.94997
481.39        70.16456
481.83        69.36475
482.27        69.52773
482.72        69.83686
483.16        69.45963
483.60        69.55828
484.04        69.72347
484.48        70.08282
484.93        70.30245
485.37        70.19709
485.81        69.46852
486.25        68.85183
486.69        71.00194
487.14        72.03371
487.58        69.70912
488.02        69.92171
488.46        68.71249
488.90        68.58295
489.34        70.01774
489.79        70.98885
490.23        69.98975
490.67         69.2644
491.11        68.64291
491.55        68.58472
491.99        68.96951
492.43        68.93568
492.88        68.47602
493.32        68.28305
493.76        68.41584
494.20         68.5273
494.64        68.58246
495.08        68.76855
495.52        69.00008
495.96        68.88384
496.41        68.49979
496.85        68.49567
497.29        68.69556
497.73        68.67953
498.17         67.6883
498.61        67.49586
499.05        67.86449
499.49         68.2935
499.93        68.38328
500.37        68.45667
500.82        68.47281
501.26        68.40456
501.70        68.29034
502.14        68.76025
502.58        68.84192
503.02        69.04512
503.46         69.0719
503.90        69.10081
504.34         69.1131
504.78         69.0158
505.22        68.82378
505.66        68.56972
506.10        68.32272
506.54        68.16782
506.98        68.12305
507.42         68.1917
507.86        68.32603
508.30        68.29099
508.74        68.30258
509.18        68.19602
509.62        68.07427
510.06        67.98354
510.50        67.94174
510.94        67.92281
511.38        67.92368
511.82        67.94834
512.26        67.99107
512.70        68.05802
513.14        68.11977
513.58        68.12529
514.02        68.06893
514.46        67.96391
514.90        67.86353
515.34        67.85596
515.78        67.95641
516.22        68.13329
516.66        68.32491
517.10        68.43157
517.54        68.42783
517.98        68.34663
518.42        68.22762
518.86        68.13631
519.30        68.09311
519.74        68.07247
520.18        68.06948
520.62        68.07578
521.06        68.08714
521.50        68.12018
521.93        68.15295
522.37        68.12406
522.81        68.03828
523.25        67.90702
523.69        67.79681
524.13        67.81466
524.57        67.96957
525.01        68.21512
525.45        68.45911
525.89        68.55233
526.32        68.45155
526.76        68.22715
527.20         67.9379
527.64        67.68392
528.08         67.5041
528.52        67.36978
528.96        67.29147
529.40        67.28467
529.83        67.33739
530.27        67.45462
530.71        67.57675
531.15        67.61045
531.59         67.5387
532.03        67.38554
532.46        67.19888
532.90        67.10603
533.34        67.12286
533.78        67.17396
534.22        67.22536
534.66        67.30801
535.09         67.3563
535.53        67.23181
535.97        66.97405
536.41        66.82034
536.85        66.79581
537.28        66.77225
537.72        66.76138
538.16        66.83411
538.60        66.98258
539.04        67.18658
539.47         67.3666
539.91        67.44324
540.35        67.38679
540.79        67.22585
541.22        67.03422
541.66        66.95377
542.10          67.007
542.54        67.15248
542.97        67.30636
543.41        67.36743
543.85        67.30295
544.29        67.16319
544.72        66.99368
545.16        66.90116
545.60        66.89685
546.04        66.95546
546.47        67.06139
546.91        67.17374
547.35        67.27396
547.79        67.39592
548.22        67.50346
548.66        67.50383
549.10         67.4652
549.53        67.38503
549.97        67.30611
550.41        67.13715
550.84        66.94816
551.28         66.9782
551.72        67.16805
552.15        67.24651
552.59        67.22668
553.03          67.063
553.46        67.22686
553.90        67.19537
554.34        67.09765
554.77        67.06956
555.21        67.02356
555.65        67.01912
556.08        67.18891
556.52          67.315
556.96        67.39367
557.39        67.50989
557.83        67.60529
558.27        67.32629
558.70        66.77776
559.14        66.56452
559.57        66.68885
560.01        66.69238
560.45        66.60662
560.88        66.86391
561.32        67.37186
561.75        67.61263
562.19        67.57581
562.63        67.42611
563.06        67.25603
563.50        67.29373
563.93        67.44416
564.37        67.45659
564.80        67.35505
565.24        67.20937
565.68        66.89525
566.11        67.56474
566.55         66.8007
566.98        66.60034
567.42        66.41949
567.85        66.59271
568.29        67.08183
568.72        67.55521
569.16        68.00724
569.60        68.24419
570.03        68.24876
570.47        68.39279
570.90        68.73443
571.34        67.60827
571.77        68.26992
572.21        68.36517
572.64        68.41651
573.08        68.92435
573.51        68.20143
573.95        68.24235
574.38        68.70916
574.82        68.77378
