SpectraSmart Spectrum 2.9.0.0
--------- Device Information -----------
Spectrum Name :  反射率_0
Saving Time :  2024/04/26 23:59:28
Spectro-Module Model Name : SE2030-DUVN
Spectro-Module Serial Number : OS361AC55029948
Wavelength Start : 200
Wavelength End : 1025
Wavelength Unit : Wavelength(nm)
Spectrum Unit : Reflectance(%)
-----------Spectrum Setting ------------
Integration Time : 20ms
Average : 10
Boxcar : 0
Background removal :  enabled
linearity correction :  enabled
SC :  disabled
Intensity correction :  disabled
DWT denoise :  enabled
savitzky-golay :  disabled
FFT :  disabled
Running average :  disabled
Kalman :  disabled
High pass :  disabled
---------------BEGIN--------------------
Wavelength(nm)             Reflectance(%)
200.29               0
200.75        50.17611
201.21        52.68847
201.67        54.82504
202.13        55.31012
202.58        54.02671
203.04         51.4594
203.50         48.4256
203.96        47.49458
204.42        50.32127
204.88        56.31733
205.34        63.12814
205.80        66.41335
206.26        64.99641
206.72        60.62759
207.18        55.55108
207.64         51.2051
208.10        47.45066
208.55        43.61457
209.01        39.28934
209.47        37.12803
209.93        38.72617
210.39        42.30661
210.85        46.32914
211.31        51.17064
211.77        58.79267
212.23        74.31283
212.69        111.6768
213.14         174.717
213.60        172.7144
214.06        128.4146
214.52        98.56927
214.98        85.95723
215.44        81.50728
215.90        79.59151
216.36        79.17161
216.81        79.34007
217.27        79.85596
217.73        82.41348
218.19        84.86744
218.65         79.8522
219.11        68.87632
219.57        58.20679
220.02        52.52488
220.48        53.91753
220.94        61.67782
221.40        77.03638
221.86        99.47409
222.32         114.163
222.77        108.2628
223.23        91.60331
223.69        75.34142
224.15        65.80574
224.61        61.85762
225.06        60.43201
225.52        60.54236
225.98        61.06573
226.44        61.65773
226.90        62.64216
227.36         63.7562
227.81         64.3334
228.27        64.32299
228.73        63.71039
229.19         62.8466
229.65        62.19974
230.10        61.79185
230.56        61.56561
231.02        61.25428
231.48        60.50499
231.93        59.31668
232.39         58.1801
232.85         57.3299
233.31        57.14932
233.77        57.61433
234.22        58.51955
234.68         59.6615
235.14        60.86516
235.60        62.00525
236.05        63.18885
236.51        64.00038
236.97        63.72492
237.43        62.18797
237.88         59.6185
238.34        56.80063
238.80        55.26307
239.26        55.58214
239.71         58.1272
240.17        62.35439
240.63        66.57207
241.08        69.66291
241.54        71.22507
242.00        72.83821
242.46        78.32661
242.91         90.9072
243.37        112.5012
243.83        144.2106
244.28        173.5265
244.74        179.4482
245.20        159.8678
245.66        131.8487
246.11        111.8019
246.57         101.048
247.03        95.10793
247.48        90.34763
247.94         82.5722
248.40        73.68229
248.85        66.71029
249.31        62.51903
249.77        60.54487
250.22        60.01913
250.68        60.21972
251.14        61.51372
251.59        64.56044
252.05        68.78265
252.51        73.43822
252.96        75.51516
253.42        73.07166
253.88        67.22133
254.33        59.47877
254.79        53.72619
255.25        52.90421
255.70        56.49207
256.16        63.05782
256.62         69.1614
257.07        69.71394
257.53        65.82071
257.99        60.46471
258.44        56.02082
258.90        54.67229
259.35        55.37834
259.81        57.24551
260.27        58.86015
260.72        58.58871
261.18        56.71109
261.63         53.8966
262.09        51.33693
262.55        49.77627
263.00        49.10364
263.46        49.02337
263.91        48.91088
264.37         48.2691
264.83        47.04105
265.28         45.4864
265.74         44.0821
266.19        43.12352
266.65        42.70504
267.11        42.58184
267.56        42.57435
268.02        42.41773
268.47        42.01997
268.93        41.49524
269.38         40.8318
269.84        40.06161
270.30        39.20297
270.75        38.23394
271.21        37.29556
271.66        36.55515
272.12        36.04011
272.57        35.68343
273.03         35.3363
273.48         34.7432
273.94        33.91036
274.39        32.91508
274.85        31.95669
275.31        31.17874
275.76        30.59772
276.22        30.18537
276.67        29.86498
277.13        29.60935
277.58        29.34826
278.04        29.11172
278.49         28.8322
278.95        28.51576
279.40        28.11832
279.86        27.70651
280.31        27.24633
280.77        26.78997
281.22        26.32092
281.68        25.88364
282.13        25.49368
282.59        25.24683
283.04        25.11418
283.50        25.07888
283.95         25.0576
284.41        24.92852
284.86        24.66765
285.32         24.3452
285.77        24.00986
286.22        23.78321
286.68        23.68798
287.13        23.65053
287.59        23.65758
288.04        23.65114
288.50        23.62434
288.95        23.56599
289.41        23.46873
289.86        23.25979
290.32        22.97879
290.77        22.65805
291.22        22.37742
291.68        22.24067
292.13        22.27667
292.59        22.48096
293.04        22.85845
293.50         23.4268
293.95        24.16063
294.40        25.04803
294.86        26.02538
295.31        26.98502
295.77        27.90739
296.22        28.80924
296.68         29.7446
297.13        30.79029
297.58         31.9864
298.04        33.32697
298.49        34.79779
298.95        36.38739
299.40        38.07172
299.85        39.84672
300.31         41.7165
300.76        43.67088
301.21        45.69867
301.67        47.80227
302.12        49.90096
302.58        51.95247
303.03         53.9188
303.48        55.85542
303.94        57.85023
304.39        59.97858
304.84        62.28312
305.30        64.73537
305.75        67.25742
306.20        69.81072
306.66        72.36836
307.11        74.89134
307.57        77.33791
308.02        79.54656
308.47        81.52216
308.93        83.30248
309.38        84.99121
309.83        86.87402
310.29        89.00761
310.74        91.31165
311.19        93.57066
311.65        95.39182
312.10        96.66245
312.55        97.49785
313.00        98.17911
313.46        99.15314
313.91        100.5037
314.36        102.1286
314.82        103.7789
315.27        105.0606
315.72        105.8437
316.18        106.2806
316.63         106.555
317.08        107.0071
317.53        107.7293
317.99        108.6005
318.44        109.4925
318.89        110.1666
319.35         110.554
319.80         110.753
320.25        110.8662
320.70        111.0505
321.16         111.358
321.61        111.7806
322.06        112.2607
322.51        112.7179
322.97        113.1049
323.42        113.4431
323.87        113.8034
324.32        114.3246
324.78        114.9816
325.23        115.8058
325.68         116.532
326.13        116.7465
326.59        116.3775
327.04        115.5935
327.49        114.7724
327.94        114.5418
328.39        115.0511
328.85        116.0909
329.30        117.4288
329.75        118.3538
330.20        118.6304
330.66        118.4203
331.11        118.0546
331.56         117.992
332.01        118.3784
332.46        119.0368
332.92        119.7295
333.37        120.2469
333.82         120.435
334.27        120.4364
334.72        120.3511
335.17        120.3093
335.63        120.3791
336.08        120.5987
336.53        121.0055
336.98        121.7146
337.43        122.7185
337.88        123.9299
338.34        125.2305
338.79        126.5489
339.24        127.7274
339.69        128.7578
340.14         129.437
340.59        129.4778
341.05        128.9256
341.50        127.9174
341.95        126.8807
342.40        126.4621
342.85        126.8184
343.30        127.7694
343.75        129.0361
344.20        130.1249
344.66        130.8504
345.11         131.332
345.56        131.5979
346.01        131.7083
346.46        131.7258
346.91        131.6281
347.36        131.5003
347.81        131.5106
348.26        131.6835
348.72        131.9639
349.17        132.3059
349.62        132.6586
350.07        132.9774
350.52        133.2978
350.97        133.4426
351.42        133.1362
351.87        132.3757
352.32        131.2618
352.77        130.1817
353.22        129.7029
353.67        129.9179
354.13         130.658
354.58        131.5194
355.03        131.7728
355.48        131.2318
355.93        130.1114
356.38        128.8453
356.83        128.0913
357.28        127.9746
357.73        128.2514
358.18        128.5392
358.63        128.2371
359.08        127.2008
359.53        125.6662
359.98        123.9389
360.43        122.4422
360.88        121.2958
361.33        120.3764
361.78        119.5545
362.23        118.6372
362.68        117.5839
363.13        116.4884
363.58        115.4412
364.03        114.5553
364.48        113.8375
364.93        113.2092
365.38        112.5907
365.83        111.8792
366.28         111.044
366.73        110.1277
367.18        109.1441
367.63        108.1075
368.08        107.0437
368.53        105.9637
368.98        104.9279
369.43        104.0268
369.88        103.2784
370.33        102.6594
370.78        102.1137
371.23        101.5484
371.68         100.926
372.13        100.2525
372.58        99.54922
373.03        98.85361
373.48        98.16782
373.93        97.47377
374.38        96.72506
374.83        95.86321
375.28        94.89175
375.72        93.82428
376.17        92.80592
376.62         91.9311
377.07        91.23514
377.52        90.71776
377.97        90.28596
378.42        89.79987
378.87        89.23038
379.32        88.58254
379.77        88.02409
380.22        87.80234
380.67        87.91983
381.11        88.31623
381.56        88.59593
382.01        88.20113
382.46         87.0655
382.91        85.45115
383.36        83.83995
383.81        82.88607
384.26        82.69506
384.71        83.04028
385.15        83.62534
385.60        83.93053
386.05        83.78538
386.50        83.34524
386.95        82.70749
387.40        82.02986
387.85        81.39329
388.29        80.69607
388.74        80.08808
389.19        79.57847
389.64        79.16337
390.09        78.84445
390.54        78.57121
390.98        78.23245
391.43        77.85553
391.88        77.46136
392.33        77.10922
392.78         76.8701
393.23        76.74584
393.67        76.69836
394.12        76.72619
394.57        76.60456
395.02        76.33734
395.47        76.10609
395.91         75.9408
396.36        75.70103
396.81        75.43279
397.26        75.25301
397.71        75.07426
398.15        74.76318
398.60        74.41695
399.05        73.79587
399.50        73.12227
399.95        73.26808
400.39        74.02937
400.84        73.94704
401.29         73.0552
401.74        72.73014
402.18        72.95985
402.63        72.63648
403.08        71.88164
403.53        71.53639
403.97        71.63952
404.42        71.84226
404.87         72.0033
405.32        71.97025
405.76        71.68581
406.21        71.31737
406.66        70.93903
407.11        70.55511
407.55        70.31216
408.00        70.35275
408.45        70.62589
408.90        71.01432
409.34        71.27158
409.79        70.87491
410.24         70.0486
410.68        69.65813
411.13        69.78376
411.58        69.94727
412.03        70.01489
412.47         69.9881
412.92         69.8052
413.37        69.50753
413.81        69.20643
414.26        69.12794
414.71        69.28336
415.15        69.63583
415.60         70.0406
416.05        70.32029
416.49        70.41365
416.94        70.35957
417.39        70.24626
417.83        70.19702
418.28         70.2542
418.73        70.37933
419.17        70.52279
419.62        70.61128
420.07        70.61526
420.51         70.5401
420.96        70.46936
421.41        70.43999
421.85        70.44186
422.30        70.60874
422.74        70.77825
423.19         70.6618
423.64        70.28271
424.08        70.05424
424.53        70.08378
424.98        70.19718
425.42         70.4005
425.87        71.05182
426.31        71.87035
426.76        71.68587
427.21        70.70994
427.65        70.49444
428.10        71.02412
428.54        71.18165
428.99        71.01028
429.44         70.8437
429.88        70.85924
430.33        71.60425
430.77        72.65989
431.22        73.05593
431.66        72.68758
432.11        71.84857
432.56        70.93168
433.00         70.8458
433.45         71.7825
433.89        72.72961
434.34        72.87782
434.78        74.23203
435.23        73.44272
435.67        71.02274
436.12        71.71856
436.57        71.77761
437.01        72.38815
437.46        73.71184
437.90        72.88457
438.35        72.52944
438.79        72.83289
439.24        72.87108
439.68        72.89346
440.13        73.03448
440.57        73.34088
441.02        73.44473
441.46        73.36368
441.91        73.93958
442.35        74.77862
442.80         74.5014
443.24        73.38856
443.69        73.42899
444.13        74.51514
444.58        74.97954
445.02        74.76299
445.47          74.819
445.91        75.16862
446.36        75.43213
446.80        75.58316
447.24        75.73164
447.69        75.87844
448.13        75.95985
448.58        76.01399
449.02         76.1161
449.47        76.23785
449.91        76.22051
450.36        76.08469
450.80        75.88581
451.25        75.73552
451.69         75.7176
452.13        75.86667
452.58        76.14207
453.02        76.44008
453.47        76.60148
453.91         76.5726
454.36        76.41338
454.80        76.19666
455.24         75.9291
455.69        75.63995
456.13         75.5407
456.58          75.644
457.02        75.01273
457.46        74.82161
457.91        74.97707
458.35        75.51537
458.79        75.44605
459.24         74.7784
459.68        73.95013
460.13        73.28688
460.57        72.97908
461.01        73.13123
461.46        73.63642
461.90        74.26907
462.34         74.8111
462.79        74.42223
463.23        74.67934
463.68        75.16452
464.12        75.04425
464.56        74.29611
465.01        73.39349
465.45        72.58598
465.89         72.3412
466.34        72.59532
466.78        73.03198
467.22        73.48507
467.67        73.20097
468.11         72.9285
468.55         72.8685
468.99        73.17972
469.44        73.13718
469.88        72.75248
470.32        72.47422
470.77        72.36974
471.21        72.33828
471.65        72.37645
472.10        72.51576
472.54        72.69327
472.98        72.77452
473.42        72.71449
473.87        72.68967
474.31        72.63564
474.75        72.21198
475.20        71.61462
475.64        71.54998
476.08        71.94232
476.52        71.96445
476.97        71.56534
477.41        71.31227
477.85          71.382
478.29         70.9684
478.74         71.6516
479.18        71.80447
479.62         71.8538
480.06        71.88532
480.50        71.87309
480.95        71.80833
481.39        71.73392
481.83        71.43118
482.27        71.29438
482.72        71.63375
483.16        71.73965
483.60        71.37794
484.04        71.74502
484.48        71.88625
484.93        72.12496
485.37        71.61055
485.81        71.83881
486.25        71.06635
486.69        72.37675
487.14        73.08861
487.58        71.50927
488.02        71.95795
488.46        70.79542
488.90         70.5339
489.34        72.09942
489.79        72.68382
490.23        72.28013
490.67        71.61366
491.11        70.93758
491.55            70.9
491.99        71.38058
492.43        71.38343
492.88        70.87562
493.32        70.59166
493.76        70.63088
494.20        70.70126
494.64        70.78304
495.08        71.09473
495.52        71.48398
495.96         71.3555
496.41        70.82115
496.85        70.76333
497.29        71.03535
497.73        71.13966
498.17        70.23897
498.61        70.09146
499.05        70.43847
499.49        70.72726
499.93        70.60345
500.37        70.64281
500.82         70.8204
501.26        70.42501
501.70         70.6553
502.14        70.69801
502.58        70.86982
503.02        70.96839
503.46        70.98507
503.90        71.01924
504.34        71.03815
504.78        70.96707
505.22        70.79494
505.66        70.56916
506.10        70.37208
506.54        70.25563
506.98        70.17714
507.42        70.52945
507.86        70.28471
508.30        70.35326
508.74        70.42447
509.18        70.45108
509.62        70.41946
510.06        70.37385
510.50        70.32985
510.94        70.25981
511.38        70.20415
511.82        70.22775
512.26        70.33944
512.70        70.52706
513.14        70.72197
513.58        70.80994
514.02        70.76648
514.46        70.62005
514.90        70.45679
515.34        70.41689
515.78          70.529
516.22        70.74851
516.66        70.97592
517.10        71.05143
517.54         70.9388
517.98         70.6955
518.42        70.41828
518.86        70.24348
519.30         70.2078
519.74        70.31213
520.18         70.4893
520.62        70.51673
521.06        70.42357
521.50        70.51488
521.93        70.75697
522.37        70.83432
522.81        70.73866
523.25        70.61945
523.69        70.55019
524.13        70.58368
524.57        70.72947
525.01        70.96181
525.45        71.17344
525.89        71.18903
526.32         70.9715
526.76        70.60737
527.20        70.19762
527.64        69.91272
528.08        69.80249
528.52         69.7952
528.96        69.86366
529.40         70.0027
529.83        70.16114
530.27        70.27329
530.71        70.30714
531.15        70.29317
531.59        70.23075
532.03        70.07896
532.46        69.88118
532.90         69.7841
533.34        69.80185
533.78        69.85918
534.22        69.91328
534.66        69.98153
535.09        69.99505
535.53        69.81417
535.97        69.50121
536.41        69.33456
536.85        69.34726
537.28        69.40067
537.72        69.47707
538.16        69.60207
538.60        69.75559
539.04        69.92482
539.47        70.06709
539.91         70.1634
540.35        70.18996
540.79        70.15384
541.22        70.07264
541.66        69.99976
542.10        69.94566
542.54        69.90788
542.97        69.86376
543.41        69.80899
543.85        69.73061
544.29        69.64069
544.72        69.55824
545.16        69.53352
545.60        69.55947
546.04        69.68445
546.47        69.85876
546.91         69.8836
547.35        69.80241
547.79        69.86823
548.22        70.06197
548.66        70.22045
549.10        70.34975
549.53        70.29053
549.97        70.09454
550.41        69.87981
550.84        69.73429
551.28         69.6948
551.72        69.72477
552.15        69.80052
552.59        69.97476
553.03        69.61083
553.46        70.20873
553.90        70.04646
554.34        70.06448
554.77        69.96853
555.21        69.82731
555.65        69.83932
556.08        69.93787
556.52         70.1572
556.96        70.36984
557.39         70.3211
557.83        70.06079
558.27        69.84058
558.70        69.70037
559.14        69.58267
559.57        69.58334
560.01        69.46078
560.45         69.3279
560.88        69.57734
561.32        70.11168
561.75        70.35918
562.19        70.30717
562.63        70.15357
563.06         69.9871
563.50        70.10123
563.93        70.22984
564.37        70.25072
564.80        70.13796
565.24        69.94907
565.68        69.59019
566.11        70.30702
566.55        69.58305
566.98        69.52992
567.42        69.50661
567.85        69.60048
568.29        69.79378
568.72        70.14749
569.16        70.69646
569.60        70.77695
570.03        70.56525
570.47        71.20925
570.90        71.12811
571.34        70.43028
571.77        70.91266
572.21        71.02661
572.64        71.00971
573.08        71.10516
573.51        70.64524
573.95        70.68756
574.38        71.16666
574.82        71.20251
