SpectraSmart Spectrum 2.9.0.0
--------- Device Information -----------
Spectrum Name :  反射率_0
Saving Time :  2024/04/26 23:53:38
Spectro-Module Model Name : SE2030-DUVN
Spectro-Module Serial Number : OS361AC55029948
Wavelength Start : 200
Wavelength End : 1025
Wavelength Unit : Wavelength(nm)
Spectrum Unit : Reflectance(%)
-----------Spectrum Setting ------------
Integration Time : 20ms
Average : 10
Boxcar : 0
Background removal :  enabled
linearity correction :  enabled
SC :  disabled
Intensity correction :  disabled
DWT denoise :  enabled
savitzky-golay :  disabled
FFT :  disabled
Running average :  disabled
Kalman :  disabled
High pass :  disabled
---------------BEGIN--------------------
Wavelength(nm)             Reflectance(%)
200.29               0
200.75        39.12468
201.21        38.41635
201.67        38.74611
202.13        39.47667
202.58        40.43904
203.04        42.25917
203.50        45.20061
203.96        48.98931
204.42        53.06592
204.88        56.83323
205.34         59.7575
205.80        61.76572
206.26        62.62724
206.72        61.95656
207.18        60.48906
207.64         58.7888
208.10        56.82886
208.55        54.92652
209.01        51.75772
209.47        46.98582
209.93        42.94551
210.39        40.81489
210.85        40.86732
211.31          43.426
211.77          49.561
212.23        63.88823
212.69        99.88824
213.14        160.9666
213.60        158.9802
214.06        115.9003
214.52         86.8477
214.98        74.57686
215.44        70.14977
215.90        67.96122
216.36        66.77642
216.81        65.28526
217.27        63.03224
217.73        61.28008
218.19        58.07395
218.65        49.72881
219.11        40.17746
219.57        33.50181
220.02        31.75871
220.48        36.16162
220.94         46.7945
221.40        65.45763
221.86        92.61685
222.32        113.1397
222.77        111.3301
223.23        96.41844
223.69        78.72935
224.15        64.43498
224.61        53.87431
225.06         45.1146
225.52        39.38175
225.98         37.8872
226.44        39.91859
226.90        44.69658
227.36        49.81399
227.81        51.07742
228.27        48.01604
228.73        42.35778
229.19        36.76531
229.65        34.21919
230.10        34.89174
230.56        37.64198
231.02        40.91138
231.48         42.2697
231.93        41.19493
232.39        38.94442
232.85        36.64555
233.31        35.72039
233.77        36.34868
234.22        37.97807
234.68        39.97366
235.14        41.53201
235.60        42.38885
236.05         42.8801
236.51        43.17815
236.97        43.55045
237.43        44.16899
237.88        44.94685
238.34        45.97632
238.80        47.78833
239.26        50.67523
239.71        55.09036
240.17        60.84605
240.63         67.0376
241.08        72.76859
241.54         77.3016
242.00        80.99135
242.46        85.55536
242.91        92.87075
243.37         103.149
243.83        117.3846
244.28        131.7009
244.74        137.2133
245.20        132.3524
245.66        122.7706
246.11        114.1652
246.57        107.9005
247.03         102.489
247.48        96.76873
247.94        90.26237
248.40        84.61716
248.85        80.45406
249.31        78.11847
249.77        76.84403
250.22         75.9511
250.68        75.00758
251.14        73.88244
251.59        72.67701
252.05        72.03064
252.51        72.62543
252.96        72.76431
253.42         71.1974
253.88        68.30606
254.33        64.53835
254.79        62.85769
255.25        65.58571
255.70        72.10142
256.16        81.16735
256.62        88.75249
257.07        88.89224
257.53        83.33817
257.99        75.94952
258.44        69.74316
258.90        67.38215
259.35        67.60409
259.81        69.33391
260.27        70.99187
260.72         70.7725
261.18        68.92902
261.63        66.08432
262.09        63.47601
262.55        61.79853
263.00        60.91966
263.46        60.59739
263.91        60.14169
264.37        59.05958
264.83        57.31313
265.28        55.18586
265.74        53.26928
266.19        51.94711
266.65        51.32036
267.11        51.08967
267.56        50.98464
268.02        50.60294
268.47        49.82732
268.93        48.83698
269.38        47.68821
269.84         46.5232
270.30        45.38743
270.75        44.21632
271.21        43.13928
271.66        42.29795
272.12        41.69986
272.57        41.28009
273.03        40.84701
273.48        40.07372
273.94        38.97109
274.39        37.64207
274.85        36.35952
275.31        35.35603
275.76        34.65773
276.22        34.20687
276.67        33.87489
277.13        33.57353
277.58        33.20789
278.04         32.8279
278.49        32.38157
278.95        31.90898
279.40        31.37093
279.86        30.83112
280.31        30.23896
280.77         29.6337
281.22        29.00273
281.68        28.41766
282.13        27.91456
282.59        27.62066
283.04        27.51241
283.50        27.56799
283.95        27.69785
284.41        27.76843
284.86        27.73798
285.32        27.66628
285.77        27.58646
286.22        27.61404
286.68          27.767
287.13        27.96193
287.59        28.17572
288.04        28.33083
288.50        28.42299
288.95        28.44875
289.41        28.42248
289.86         28.2914
290.32        28.11226
290.77        27.91482
291.22         27.7862
291.68        27.83555
292.13        28.09141
292.59        28.55432
293.04        29.22443
293.50        30.11223
293.95        31.18319
294.40        32.42007
294.86        33.75572
295.31         35.0754
295.77        36.35842
296.22         37.6177
296.68        38.89635
297.13        40.25502
297.58        41.72688
298.04        43.29184
298.49        44.95567
298.95        46.74755
299.40        48.63403
299.85        50.59467
300.31        52.55994
300.76         54.3987
301.21        56.09756
301.67         57.7177
302.12        59.28203
302.58        60.92114
303.03        62.62409
303.48        64.38482
303.94        66.22514
304.39        68.10639
304.84        70.03931
305.30        72.03864
305.75        74.01599
306.20         75.9255
306.66         77.7643
307.11        79.50008
307.57        81.17084
308.02        82.73246
308.47        84.20782
308.93        85.59966
309.38        86.92624
309.83        88.33442
310.29        89.84969
310.74        91.44003
311.19        92.95055
311.65        94.09677
312.10        94.80872
312.55        95.16824
313.00        95.44498
313.46        96.06145
313.91        97.07825
314.36         98.3978
314.82        99.73243
315.27        100.6273
315.72        100.9492
316.18        100.8678
316.63        100.6288
317.08        100.6629
317.53        101.0853
317.99        101.7604
318.44        102.5083
318.89        103.0053
319.35        103.1629
319.80        103.0986
320.25        102.9806
320.70         103.069
321.16        103.4297
321.61        104.0135
322.06        104.6611
322.51        105.1291
322.97        105.3338
323.42        105.3461
323.87        105.3475
324.32        105.6544
324.78        106.2944
325.23        107.2454
325.68        108.1629
326.13        108.4886
326.59        108.1035
327.04        107.2196
327.49        106.2714
327.94        105.9707
328.39        106.4869
328.85        107.5752
329.30        108.9608
329.75        109.8831
330.20        110.0894
330.66        109.7736
331.11        109.2694
331.56         109.039
332.01        109.2401
332.46        109.6957
332.92        110.2276
333.37        110.7114
333.82         111.018
334.27          111.27
334.72        111.4736
335.17        111.6035
335.63        111.6796
336.08        111.7521
336.53        111.9573
336.98        112.5803
337.43        113.6534
337.88        115.0513
338.34        116.5116
338.79        117.7087
339.24        118.4472
339.69        118.8148
340.14        118.8376
340.59        118.5935
341.05        118.2011
341.50        117.6636
341.95        117.1922
342.40        117.1006
342.85        117.4567
343.30        118.1943
343.75        119.1239
344.20         119.903
344.66        120.4144
345.11        120.7213
345.56        120.8977
346.01        121.0823
346.46        121.3299
346.91        121.6026
347.36        121.8532
347.81        122.0315
348.26         122.121
348.72        122.1242
349.17        122.1369
349.62        122.3408
350.07         122.746
350.52        123.3127
350.97        123.7494
351.42        123.5936
351.87        122.7941
352.32        121.5241
352.77        120.2459
353.22        119.6328
353.67        119.8103
354.13        120.5718
354.58        121.4958
355.03        121.8314
355.48        121.3782
355.93        120.3643
356.38        119.2058
356.83        118.5284
357.28        118.4574
357.73         118.758
358.18        119.0782
358.63        118.8697
359.08        117.9965
359.53        116.6701
359.98        115.1687
360.43        113.8787
360.88        112.9035
361.33        112.1229
361.78         111.403
362.23        110.5439
362.68        109.5088
363.13        108.4016
363.58        107.3227
364.03        106.3992
364.48        105.6536
364.93        105.0162
365.38        104.4346
365.83        103.8426
366.28        103.2112
366.73        102.5632
367.18        101.8742
367.63        101.1026
368.08        100.2489
368.53        99.32409
368.98        98.39423
369.43        97.56536
369.88        96.86338
370.33        96.26796
370.78        95.71552
371.23        95.10003
371.68        94.39668
372.13        93.63401
372.58        92.88374
373.03        92.25693
373.48        91.76481
373.93        91.35468
374.38        90.92989
374.83        90.34804
375.28        89.58022
375.72        88.66362
376.17        87.73205
376.62        86.87537
377.07        86.14122
377.52        85.52747
377.97        85.00625
378.42        84.54449
378.87        84.12831
379.32        83.73253
379.77        83.42924
380.22        83.32125
380.67        83.38419
381.11        83.59765
381.56         83.6626
382.01        83.18479
382.46        82.14459
382.91        80.75351
383.36        79.39853
383.81        78.60283
384.26        78.44687
384.71        78.74167
385.15         79.2705
385.60        79.64377
386.05        79.71166
386.50         79.5757
386.95        79.22818
387.40        78.67034
387.85        77.96313
388.29        77.07926
388.74         76.2633
389.19        75.66124
389.64        75.29702
390.09        75.12154
390.54        75.04247
390.98        74.87902
391.43        74.62155
391.88        74.31121
392.33        73.99355
392.78        73.71687
393.23        73.49103
393.67        73.29742
394.12        73.17471
394.57         72.9458
395.02        72.64294
395.47        72.48463
395.91        72.45797
396.36        72.30972
396.81         72.0564
397.26          71.847
397.71        71.66042
398.15        71.42298
398.60        71.22386
399.05        70.88139
399.50        70.49598
399.95        70.56537
400.39        70.96091
400.84        70.75675
401.29        70.00497
401.74        69.67335
402.18        69.74238
402.63        69.34396
403.08        68.61793
403.53        68.32126
403.97        68.48533
404.42         68.7739
404.87        69.02121
405.32        69.02853
405.76        68.72421
406.21        68.31759
406.66        67.90437
407.11        67.41364
407.55        67.04053
408.00        67.19905
408.45        67.76738
408.90        68.14429
409.34        68.11386
409.79         67.6543
410.24         66.9772
410.68         66.5932
411.13        66.58064
411.58        66.65011
412.03        66.69138
412.47        66.65871
412.92        66.49564
413.37        66.25221
413.81         66.0158
414.26        65.97589
414.71        66.13538
415.15        66.45766
415.60        66.81432
416.05        67.05754
416.49        67.13559
416.94        67.08274
417.39        66.96631
417.83         66.8777
418.28        66.85507
418.73        66.87129
419.17        66.91401
419.62        66.96749
420.07        67.01083
420.51        67.02698
420.96        67.04473
421.41        67.02184
421.85        66.92458
422.30         66.9132
422.74        66.88586
423.19        66.58897
423.64        66.10212
424.08        65.94599
424.53        66.11042
424.98        66.20899
425.42        66.23717
425.87         66.3833
426.31        66.61308
426.76        66.78734
427.21        66.85924
427.65         66.7003
428.10        66.38486
428.54        66.28662
428.99        66.46989
429.44         66.5083
429.88        66.47425
430.33        66.95736
430.77        67.68828
431.22        67.96397
431.66        67.86606
432.11        67.32613
432.56        66.67406
433.00        66.49253
433.45        66.90405
433.89         67.6337
434.34        68.08759
434.78        68.56541
435.23        67.61469
435.67        66.24165
436.12        66.68815
436.57        66.89191
437.01        67.37138
437.46         67.7194
437.90        67.37933
438.35        67.22498
438.79        67.15704
439.24        67.14435
439.68        67.16972
440.13        67.28036
440.57         67.5294
441.02        67.71358
441.46         67.8048
441.91        68.44872
442.35        69.26469
442.80        68.84912
443.24        67.84167
443.69        67.78821
444.13        68.68701
444.58        69.21845
445.02        68.84845
445.47         68.8942
445.91        69.22602
446.36        69.47504
446.80        69.61111
447.24        69.74292
447.69        69.86098
448.13         69.9152
448.58         69.9212
449.02        69.86141
449.47        69.78075
449.91        69.72458
450.36        69.72835
450.80        69.75957
451.25        69.82229
451.69        69.86307
452.13         69.8828
452.58        69.89125
453.02        69.91457
453.47        69.92302
453.91        69.89555
454.36        69.98241
454.80        70.17601
455.24         69.6582
455.69        69.66769
456.13        69.30771
456.58        69.04923
457.02        68.66738
457.46        68.33723
457.91         68.5789
458.35        69.10882
458.79        69.07415
459.24        68.46657
459.68        67.67487
460.13        67.00921
460.57         66.7129
461.01        66.90394
461.46        67.32907
461.90        67.76895
462.34        68.59223
462.79        68.26355
463.23        68.42905
463.68        68.57325
464.12        68.35746
464.56        67.78561
465.01        67.14228
465.45        66.54024
465.89        66.22569
466.34         66.1843
466.78         66.3078
467.22        66.51068
467.67        66.31637
468.11        66.11384
468.55        66.07072
468.99        66.26043
469.44        66.24755
469.88        66.03726
470.32        65.89243
470.77        65.83447
471.21        65.78487
471.65        65.73194
472.10        65.69069
472.54        65.67809
472.98        65.67461
473.42        65.66814
473.87        65.83347
474.31        65.99206
474.75        65.58654
475.20         64.8977
475.64        64.49654
476.08        65.32993
476.52         65.3829
476.97        64.86835
477.41        64.68642
477.85         65.0616
478.29        64.33455
478.74        65.05608
479.18         65.4689
479.62        64.96342
480.06        64.86678
480.50        64.73712
480.95        64.71683
481.39        64.87344
481.83        64.07887
482.27        64.29194
482.72        64.93812
483.16        64.70836
483.60        64.83487
484.04        64.80982
484.48        65.02301
484.93        65.45657
485.37        64.39165
485.81        64.24662
486.25        64.02447
486.69        64.60621
487.14        65.09035
487.58        64.18569
488.02         64.8696
488.46        63.67109
488.90        63.93002
489.34        65.16096
489.79        65.58769
490.23        64.79164
490.67        64.34544
491.11        64.27122
491.55         64.2138
491.99        64.13995
492.43        64.00482
492.88        63.82195
493.32        63.75417
493.76        63.81515
494.20        63.88953
494.64        63.96106
495.08        64.07865
495.52        64.17867
495.96        64.16325
496.41        64.02774
496.85        63.79435
497.29        63.48238
497.73        63.57427
498.17        63.28055
498.61        63.43559
499.05        63.70374
499.49        63.91832
499.93        63.82079
500.37        63.81318
500.82        63.84904
501.26        63.84946
501.70        63.80615
502.14        63.76199
502.58        63.76208
503.02        63.69725
503.46        63.86712
503.90        64.01032
504.34         64.1481
504.78         64.1648
505.22        64.03339
505.66        63.81027
506.10        63.58789
506.54        63.42588
506.98        63.33672
507.42        63.63828
507.86        63.69916
508.30        63.73729
508.74         63.7688
509.18        63.66698
509.62        63.54131
510.06        63.46804
510.50         63.4754
510.94        63.52839
511.38         63.5909
511.82        63.61267
512.26        63.58158
512.70        63.52121
513.14        63.46284
513.58        63.45302
514.02        63.50388
514.46        63.59523
514.90         63.7055
515.34        63.80379
515.78        63.87289
516.22        63.91372
516.66        63.92586
517.10        63.90862
517.54        63.86696
517.98        63.81017
518.42        63.73264
518.86        63.62745
519.30        63.50208
519.74         63.3603
520.18        63.25274
520.62        63.25369
521.06        63.37205
521.50        63.58976
521.93        63.82149
522.37        63.90559
522.81        63.81788
523.25         63.6009
523.69        63.36571
524.13        63.28926
524.57        63.40255
525.01        63.63826
525.45        63.89035
525.89        63.98734
526.32        63.88015
526.76        63.65321
527.20        63.36696
527.64        63.11908
528.08         62.9494
528.52        62.82505
528.96        62.76607
529.40        62.80538
529.83         62.9313
530.27        63.14146
530.71        63.35376
531.15        63.43854
531.59        63.37037
532.03        63.18268
532.46        62.94857
532.90        62.83347
533.34        62.86261
533.78        62.95033
534.22         63.0403
534.66        63.12408
535.09        63.13184
535.53        62.94869
535.97        62.63234
536.41         62.4336
536.85        62.38721
537.28        62.37003
537.72        62.38065
538.16        62.46613
538.60        62.61293
539.04         62.8021
539.47        62.98145
539.91        63.11067
540.35         63.1618
540.79        63.14791
541.22        63.08565
541.66        63.02736
542.10        62.98245
542.54        62.93975
542.97        62.89008
543.41        62.84944
543.85        62.80949
544.29         62.7787
544.72        62.74087
545.16        62.70555
545.60        62.66486
546.04        62.62816
546.47        62.60978
546.91        62.64494
547.35        62.73547
547.79        62.81542
548.22        62.87209
548.66        62.99958
549.10          63.194
549.53         63.1421
549.97        62.90113
550.41        62.68589
550.84        62.59523
551.28        62.61893
551.72          62.678
552.15        62.77365
552.59        62.96869
553.03        62.35452
553.46        62.82387
553.90        62.76697
554.34        62.73529
554.77        62.70018
555.21         62.7107
555.65        62.82413
556.08        62.98628
556.52        63.09842
556.96        63.11439
557.39        63.10509
557.83        63.06724
558.27        62.86422
558.70        62.54518
559.14        62.36128
559.57        62.31978
560.01        62.27603
560.45        62.23759
560.88        62.37463
561.32        62.64151
561.75        62.73526
562.19         62.6699
562.63         62.6075
563.06        62.59034
563.50        62.61724
563.93        62.62999
564.37        62.72628
564.80        62.87039
565.24        62.71705
565.68        62.19599
566.11        62.75591
566.55        62.16425
566.98        62.05693
567.42        61.90147
567.85        62.08484
568.29        62.53686
568.72        62.84959
569.16        63.05214
569.60        63.06736
570.03        63.10031
570.47        63.11992
570.90        63.28644
571.34        62.47735
571.77        63.00309
572.21        63.14757
572.64        63.09486
573.08        63.28804
573.51        63.02057
573.95        62.88437
574.38        62.93496
574.82        62.87339
