SpectraSmart Spectrum 2.9.0.0
--------- Device Information -----------
Spectrum Name :  反射率_0
Saving Time :  2024/04/26 23:24:24
Spectro-Module Model Name : SE2030-DUVN
Spectro-Module Serial Number : OS361AC55029948
Wavelength Start : 200
Wavelength End : 1025
Wavelength Unit : Wavelength(nm)
Spectrum Unit : Reflectance(%)
-----------Spectrum Setting ------------
Integration Time : 20ms
Average : 10
Boxcar : 0
Background removal :  enabled
linearity correction :  enabled
SC :  disabled
Intensity correction :  disabled
DWT denoise :  enabled
savitzky-golay :  disabled
FFT :  disabled
Running average :  disabled
Kalman :  disabled
High pass :  disabled
---------------BEGIN--------------------
Wavelength(nm)             Reflectance(%)
200.29               0
200.75        40.95167
201.21        40.45935
201.67        39.91816
202.13        39.23114
202.58        38.30138
203.04        37.34375
203.50        36.78941
203.96        37.68987
204.42        40.67223
204.88        45.54123
205.34        50.97526
205.80        54.59511
206.26        55.51994
206.72        54.13145
207.18        52.03757
207.64        50.78507
208.10        50.51261
208.55        51.33572
209.01        51.94189
209.47        49.73318
209.93        45.35558
210.39        41.62195
210.85        39.80366
211.31         40.2652
211.77        43.34097
212.23        51.17773
212.69        72.77715
213.14        117.4922
213.60        128.9521
214.06        107.5509
214.52        88.38996
214.98        76.35257
215.44        67.02378
215.90        57.19074
216.36         47.6219
216.81        40.16793
217.27        35.65179
217.73        34.05307
218.19        35.29403
218.65        37.45512
219.11        38.98322
219.57         39.9304
220.02         41.8439
220.48        47.30719
220.94        57.23423
221.40         73.1279
221.86        94.20951
222.32        105.9856
222.77        97.04889
223.23        78.23178
223.69        60.30335
224.15        48.76931
224.61        42.49702
225.06        38.79772
225.52        37.18629
225.98        37.15885
226.44        38.23458
226.90        40.49249
227.36        42.72457
227.81        42.81847
228.27        40.69755
228.73        37.11344
229.19        33.88003
229.65        33.10524
230.10        34.83244
230.56        38.31652
231.02        41.95355
231.48        43.17701
231.93        41.56732
232.39        38.43952
232.85         35.3578
233.31        34.33477
233.77        35.57167
234.22        38.34044
234.68        41.56527
235.14        43.68365
235.60        44.23919
236.05        43.77459
236.51        42.82437
236.97        42.47202
237.43        43.22473
237.88        44.72847
238.34        46.83928
238.80         49.7016
239.26        53.47591
239.71         58.9005
240.17        65.52098
240.63        71.64879
241.08        75.96073
241.54        77.46374
242.00        77.69462
242.46        80.82639
242.91        89.95751
243.37        106.4813
243.83        131.1475
244.28        152.8696
244.74        154.6282
245.20        136.5436
245.66        113.0251
246.11        96.83187
246.57        88.88681
247.03        85.29772
247.48        83.39097
247.94        79.81944
248.40        75.21815
248.85        71.44356
249.31          69.283
249.77        68.41595
250.22        68.32986
250.68        68.40536
251.14         68.7416
251.59        69.62211
252.05        71.11557
252.51        73.54387
252.96        74.52819
253.42        72.32944
253.88        67.86089
254.33        62.21383
254.79        59.10861
255.25        61.60716
255.70        68.97257
256.16        79.44836
256.62        88.66981
257.07        89.98974
257.53        84.95785
257.99        77.81503
258.44        71.52581
258.90        68.70348
259.35        68.22839
259.81         69.1095
260.27        70.21806
260.72        70.33621
261.18        69.57659
261.63        68.16891
262.09        66.81927
262.55        65.66876
263.00        64.64109
263.46        63.80058
263.91        62.79858
264.37        61.60207
264.83        60.19727
265.28        58.63812
265.74        57.32096
266.19        56.38135
266.65        55.87984
267.11         55.6127
267.56          55.358
268.02        54.78041
268.47        53.80505
268.93        52.60153
269.38        51.25214
269.84        49.95064
270.30         48.7498
270.75        47.57216
271.21        46.54231
271.66        45.77931
272.12        45.27319
272.57        44.95728
273.03        44.58522
273.48        43.74605
273.94        42.45187
274.39        40.83775
274.85        39.27537
275.31        38.12436
275.76        37.42834
276.22        37.09201
276.67        36.90156
277.13        36.65612
277.58        36.22973
278.04        35.70216
278.49        35.08726
278.95        34.52939
279.40        33.99864
279.86        33.52726
280.31        32.97046
280.77        32.24561
281.22        31.33626
281.68         30.3813
282.13         29.5286
282.59        29.06044
283.04        28.96956
283.50        29.17785
283.95         29.5007
284.41        29.65312
284.86        29.55651
285.32        29.32914
285.77         29.0693
286.22        28.98686
286.68        29.11991
287.13        29.34386
287.59        29.61236
288.04        29.81392
288.50        29.93144
288.95        29.97668
289.41        29.95451
289.86          29.791
290.32        29.54794
290.77        29.25933
291.22        29.04593
291.68        29.06981
292.13        29.36413
292.59        29.91009
293.04        30.67196
293.50        31.60134
293.95        32.65205
294.40        33.83436
294.86        35.10035
295.31        36.36556
295.77        37.62215
296.22        38.86588
296.68        40.16202
297.13        41.60635
297.58        43.22752
298.04        44.99482
298.49        46.84809
298.95        48.70922
299.40        50.53453
299.85        52.35122
300.31        54.17427
300.76         56.0032
301.21        57.85308
301.67        59.73166
302.12        61.61871
302.58        63.58054
303.03        65.57207
303.48        67.60714
303.94        69.67395
304.39        71.67892
304.84        73.64109
305.30          75.596
305.75        77.53188
306.20        79.53004
306.66        81.60651
307.11        83.67971
307.57        85.71837
308.02        87.56067
308.47          89.206
308.93         90.7086
309.38        92.11027
309.83        93.59991
310.29        95.22552
310.74        96.93356
311.19        98.61085
311.65        100.0405
312.10        101.1421
312.55        101.9639
313.00         102.676
313.46         103.553
313.91        104.6303
314.36         105.863
314.82          107.05
315.27        107.8847
315.72        108.2804
316.18        108.3657
316.63        108.3461
317.08        108.5941
317.53         109.199
317.99          110.04
318.44        110.9317
318.89        111.5342
319.35        111.7563
319.80        111.7172
320.25        111.5871
320.70        111.6375
321.16        111.9432
321.61        112.4571
322.06        113.0509
322.51        113.5269
322.97        113.8098
323.42        113.9659
323.87        114.1227
324.32        114.5081
324.78        115.1255
325.23        115.9736
325.68        116.7724
326.13        117.0836
326.59        116.8127
327.04        116.1312
327.49        115.3816
327.94        115.1376
328.39        115.5374
328.85        116.3766
329.30        117.4673
329.75        118.1879
330.20        118.3397
330.66        118.0757
331.11        117.6868
331.56        117.5565
332.01        117.8123
332.46        118.3001
332.92        118.8386
333.37        119.3099
333.82        119.5835
334.27         119.774
334.72        119.9008
335.17        119.9675
335.63        120.0048
336.08        120.0722
336.53        120.2971
336.98         120.946
337.43          122.05
337.88        123.4915
338.34        125.0303
338.79        126.3855
339.24        127.3609
339.69        128.0235
340.14        128.3507
340.59        128.3445
341.05        128.1037
341.50        127.6473
341.95        127.2237
342.40        127.2108
342.85        127.6906
343.30        128.5692
343.75        129.6378
344.20        130.5198
344.66        131.0879
345.11        131.4303
345.56        131.6067
346.01        131.7298
346.46        131.8652
346.91        131.9862
347.36        132.1182
347.81        132.3253
348.26        132.6019
348.72        132.9078
349.17        133.2392
349.62        133.6199
350.07        134.0229
350.52        134.4617
350.97        134.7124
351.42        134.4254
351.87        133.5896
352.32        132.3402
352.77        131.1304
353.22        130.6223
353.67        130.9245
354.13        131.8317
354.58        132.8823
355.03        133.2508
355.48        132.7178
355.93        131.5273
356.38        130.1441
356.83        129.2692
357.28        129.0527
357.73        129.2527
358.18        129.4888
358.63        129.1646
359.08        128.1384
359.53        126.6382
359.98        124.9977
360.43         123.681
360.88        122.7963
361.33        122.1936
361.78        121.6461
362.23        120.8091
362.68        119.6166
363.13        118.2147
363.58        116.8115
364.03        115.7036
364.48        114.9504
364.93        114.4317
365.38        113.9935
365.83         113.403
366.28        112.5939
366.73        111.6506
367.18        110.6448
367.63        109.6799
368.08        108.7931
368.53        107.9462
368.98          107.14
369.43        106.3796
369.88        105.6595
370.33        104.9916
370.78        104.3456
371.23        103.6699
371.68        102.9546
372.13        102.2014
372.58        101.4617
373.03        100.8199
373.48        100.2778
373.93        99.79681
374.38        99.28115
374.83        98.58812
375.28        97.69466
375.72        96.63601
376.17        95.57172
376.62        94.62139
377.07        93.83679
377.52        93.21053
377.97        92.68474
378.42        92.17642
378.87        91.66573
379.32        91.14815
379.77        90.73687
380.22        90.59309
380.67        90.70624
381.11        91.04298
381.56        91.26463
382.01        90.91473
382.46        89.94624
382.91        88.57484
383.36        87.22019
383.81        86.45885
384.26        86.37461
384.71        86.75584
385.15        87.32893
385.60        87.61176
386.05        87.44537
386.50        86.97733
386.95        86.28212
387.40         85.4809
387.85        84.66967
388.29        83.78809
388.74        83.03799
389.19         82.4854
389.64        82.13289
390.09        81.94627
390.54        81.86198
390.98        81.74229
391.43        81.57881
391.88        81.38339
392.33        81.14849
392.78        80.84335
393.23        80.47102
393.67        80.07289
394.12        79.75023
394.57        79.32855
395.02        78.89581
395.47        78.81557
395.91        78.99269
396.36        78.88631
396.81        78.47691
397.26        78.04423
397.71        77.66508
398.15        77.36487
398.60        77.26035
399.05        77.11913
399.50        76.92584
399.95        77.06277
400.39        77.37134
400.84        76.83547
401.29        75.65635
401.74        75.28155
402.18        75.65338
402.63        75.34322
403.08        74.44718
403.53        74.08341
403.97        74.27371
404.42        74.45436
404.87         74.5034
405.32        74.41014
405.76        74.12346
406.21        73.80639
406.66        73.51849
407.11         73.1057
407.55        72.76252
408.00        72.99455
408.45        73.66356
408.90        74.06606
409.34        73.97025
409.79        73.38512
410.24        72.55953
410.68        72.06008
411.13        71.97763
411.58        72.00033
412.03         72.0045
412.47         71.9285
412.92        71.70943
413.37        71.40903
413.81        71.11745
414.26        71.03018
414.71        71.14925
415.15        71.43552
415.60        71.76302
416.05        71.99799
416.49        72.08964
416.94        72.06377
417.39        71.97482
417.83        71.89415
418.28        71.85322
418.73        71.82855
419.17        71.81407
419.62        71.80514
420.07        71.78922
420.51        71.75317
420.96        71.72939
421.41        71.67665
421.85        71.56617
422.30         71.5571
422.74        71.54922
423.19        71.32603
423.64        70.93975
424.08        70.82789
424.53        70.99323
424.98        71.09193
425.42        71.10612
425.87        71.32991
426.31        71.65228
426.76        71.47776
427.21        70.92288
427.65        70.71893
428.10        70.86372
428.54        70.93835
428.99        70.98769
429.44        70.87996
429.88        70.77145
430.33        71.52756
430.77        72.66831
431.22        72.82043
431.66        72.00993
432.11        71.13036
432.56        70.54524
433.00        70.66259
433.45        71.51477
433.89         72.2499
434.34         72.1786
434.78        73.28243
435.23        71.91408
435.67        70.45869
436.12        70.18002
436.57         70.3932
437.01        71.34863
437.46        71.80321
437.90        71.75315
438.35        70.69791
438.79        71.18763
439.24        71.13248
439.68        71.20573
440.13        71.66708
440.57        72.37244
441.02        72.14698
441.46        71.21652
441.91        71.74906
442.35        73.21104
442.80        72.97919
443.24         71.3965
443.69        71.39232
444.13        72.81658
444.58        73.35793
445.02        72.93016
445.47        72.76646
445.91        72.94997
446.36        73.09368
446.80        73.19267
447.24         73.3914
447.69        73.54588
448.13         73.6361
448.58        73.66528
449.02        73.58274
449.47        73.45219
449.91        73.37688
450.36        73.37865
450.80        73.32062
451.25        73.23478
451.69        73.19302
452.13        73.20939
452.58        73.22782
453.02        73.23337
453.47        73.23329
453.91        73.20908
454.36        73.16207
454.80        73.07323
455.24        72.86001
455.69        72.53189
456.13        72.24533
456.58        72.07245
457.02        71.60405
457.46          71.081
457.91        71.40127
458.35        72.23101
458.79         72.3114
459.24        71.63659
459.68        70.75005
460.13        69.95023
460.57         69.6294
461.01        69.96669
461.46        69.82553
461.90        70.21768
462.34        71.30926
462.79        70.79724
463.23        70.93147
463.68        70.88725
464.12        70.65422
464.56        70.19149
465.01        69.48743
465.45        68.74824
465.89        68.50426
466.34        68.66502
466.78        68.96514
467.22        69.35751
467.67        68.60356
468.11        68.76537
468.55        68.66029
468.99        68.82752
469.44        68.71253
469.88         68.3289
470.32        67.98509
470.77        67.73684
471.21        67.57057
471.65        67.49281
472.10        67.51429
472.54        67.59105
472.98        67.62611
473.42        67.58474
473.87        67.60875
474.31        67.61043
474.75        67.28882
475.20        66.77681
475.64        66.59946
476.08        66.79411
476.52        66.77318
476.97        66.47475
477.41        66.58363
477.85        67.17734
478.29        66.33559
478.74        66.64045
479.18        66.92786
479.62        66.77821
480.06        66.80336
480.50        66.64032
480.95        66.61027
481.39        66.70038
481.83        66.32751
482.27        66.17862
482.72        66.56712
483.16        66.16518
483.60        66.21095
484.04        66.23602
484.48        66.42835
484.93        66.58125
485.37        66.48292
485.81        65.74891
486.25        65.93217
486.69        67.47484
487.14        68.53082
487.58         66.9994
488.02        66.37976
488.46        65.59275
488.90        65.10159
489.34        66.58104
489.79        67.52651
490.23        67.00548
490.67        66.23236
491.11        65.24584
491.55        65.08434
491.99        65.63924
492.43        65.64558
492.88        65.08896
493.32        64.90319
493.76        65.11748
494.20        65.25851
494.64         65.2942
495.08        65.35858
495.52        65.42339
495.96        65.43881
496.41        65.37942
496.85        65.26383
497.29        65.04022
497.73        64.93255
498.17        64.22681
498.61        64.34242
499.05        64.90429
499.49        65.11222
499.93        64.72814
500.37        64.69764
500.82        64.97514
501.26        65.07494
501.70        64.95596
502.14        64.94648
502.58          65.127
503.02        64.76488
503.46        65.15031
503.90        65.23233
504.34         65.3213
504.78        65.27574
505.22         65.0823
505.66        64.78294
506.10        64.48146
506.54        64.27133
506.98         64.1664
507.42         64.3927
507.86        64.68853
508.30        64.44341
508.74        64.71855
509.18        64.61689
509.62        64.50835
510.06        64.40348
510.50        64.33038
510.94        64.26132
511.38        64.19431
511.82        64.16191
512.26        64.16589
512.70        64.20576
513.14        64.26975
513.58        64.33294
514.02        64.38509
514.46        64.42538
514.90        64.45688
515.34        64.48845
515.78        64.51833
516.22        64.53831
516.66        64.53612
517.10        64.49442
517.54        64.41367
517.98        64.30701
518.42         64.1898
518.86        64.08537
519.30        64.00278
519.74         63.9351
520.18        63.88912
520.62        63.87174
521.06        63.88201
521.50        63.92432
521.93        63.97307
522.37        63.96554
522.81        63.90167
523.25        63.79325
523.69         63.6954
524.13        63.69719
524.57        63.80736
525.01        63.98707
525.45        64.16535
525.89        64.22708
526.32        64.13923
526.76        63.96349
527.20        63.74192
527.64        63.54693
528.08        63.40894
528.52         63.3054
528.96        63.25843
529.40        63.30153
529.83        63.42614
530.27        63.62957
530.71        63.83451
531.15        63.92144
531.59        63.86564
532.03        63.69431
532.46        63.47842
532.90        63.37981
533.34        63.41998
533.78        63.51516
534.22        63.59656
534.66        63.63695
535.09        63.56794
535.53         63.2839
535.97        62.87071
536.41        62.62355
536.85        62.58489
537.28        62.61575
537.72        62.69303
538.16        62.82629
538.60        62.99093
539.04        63.18327
539.47        63.35155
539.91        63.45752
540.35        63.47773
540.79        63.41872
541.22        63.32404
541.66        63.29052
542.10        63.32991
542.54        63.41764
542.97        63.49067
543.41        63.47821
543.85        63.36038
544.29        63.18006
544.72        62.98325
545.16        62.87469
545.60        62.86721
546.04         62.9373
546.47        63.06219
546.91        63.20415
547.35        63.33727
547.79        63.44901
548.22        63.52679
548.66        63.58325
549.10        63.66254
549.53        63.63319
549.97        63.52182
550.41        63.33216
550.84        63.14198
551.28        63.08183
551.72        63.12066
552.15        63.19678
552.59        63.33667
553.03        63.03003
553.46        63.31827
553.90        63.27974
554.34        63.21602
554.77        63.11051
555.21          63.021
555.65        63.02685
556.08         63.1193
556.52        63.23251
556.96        63.30331
557.39         63.3935
557.83        63.43684
558.27        63.13673
558.70        62.56227
559.14        62.32066
559.57        62.39565
560.01        62.44218
560.45        62.44189
560.88         62.5256
561.32         62.6949
561.75        62.94426
562.19        63.21123
562.63        63.13147
563.06        62.80368
563.50        62.84028
563.93        63.13288
564.37        63.18246
564.80        63.00469
565.24        62.77733
565.68        62.42586
566.11        63.04988
566.55        62.40319
566.98        62.34486
567.42        62.31157
567.85        62.52401
568.29         62.9439
568.72        63.30502
569.16        63.64718
569.60        63.91594
570.03        63.97891
570.47        64.22988
570.90        64.68568
571.34        63.68655
571.77        64.36584
572.21        64.37836
572.64        64.37273
573.08        64.93858
573.51        63.71197
573.95         63.6443
574.38        64.19069
574.82        64.28287
