SpectraSmart Spectrum 2.9.0.0
--------- Device Information -----------
Spectrum Name :  反射率_0
Saving Time :  2024/04/26 23:17:00
Spectro-Module Model Name : SE2030-DUVN
Spectro-Module Serial Number : OS361AC55029948
Wavelength Start : 200
Wavelength End : 1025
Wavelength Unit : Wavelength(nm)
Spectrum Unit : Reflectance(%)
-----------Spectrum Setting ------------
Integration Time : 20ms
Average : 10
Boxcar : 0
Background removal :  enabled
linearity correction :  enabled
SC :  disabled
Intensity correction :  disabled
DWT denoise :  enabled
savitzky-golay :  disabled
FFT :  disabled
Running average :  disabled
Kalman :  disabled
High pass :  disabled
---------------BEGIN--------------------
Wavelength(nm)             Reflectance(%)
200.29               0
200.75        23.91064
201.21        28.82646
201.67        33.33688
202.13        34.93961
202.58        33.41062
203.04        29.55427
203.50        24.29697
203.96        21.02218
204.42        22.37017
204.88        27.97491
205.34        35.98161
205.80         42.3476
206.26        45.18144
206.72        45.07431
207.18        43.95287
207.64        43.88085
208.10        45.23506
208.55        48.31798
209.01        50.87497
209.47        46.95191
209.93         37.3155
210.39         27.9601
210.85        22.15384
211.31        20.26873
211.77         21.7683
212.23        28.24377
212.69         47.9586
213.14        89.15382
213.60        100.1194
214.06        81.01803
214.52        64.12893
214.98          54.331
215.44        47.65514
215.90        40.89606
216.36        34.76732
216.81        31.06483
217.27        30.65954
217.73        34.22425
218.19        41.16582
218.65        45.02007
219.11        42.84733
219.57        38.38442
220.02        35.86072
220.48        38.22727
220.94        45.67455
221.40        58.97506
221.86         78.0807
222.32        91.57211
222.77        88.42185
223.23        76.19987
223.69        62.89667
224.15        52.98104
224.61        46.27682
225.06        41.09277
225.52        37.72985
225.98        36.41166
226.44        36.70117
226.90        38.31718
227.36        40.10983
227.81        40.11317
228.27        38.18743
228.73        35.08543
229.19        32.15521
229.65         30.8897
230.10         31.3776
230.56        33.13689
231.02        35.21641
231.48        36.10556
231.93        35.52563
232.39        34.26698
232.85        33.26358
233.31        33.79312
233.77        35.92044
234.22        39.10392
234.68        42.50861
235.14        44.96647
235.60        46.09182
236.05        46.25303
236.51         45.6422
236.97        44.72553
237.43        43.83517
237.88        42.91033
238.34        42.22496
238.80        42.42411
239.26        43.81805
239.71        46.97207
240.17        51.63626
240.63        56.69347
241.08        61.18135
241.54        64.19553
242.00        66.80258
242.46        72.16387
242.91        82.92485
243.37        100.8723
243.83        125.2387
244.28        141.1328
244.74        130.9359
245.20        98.66156
245.66        66.74625
246.11        52.75431
246.57        55.69369
247.03        69.31087
247.48        85.51523
247.94        89.58542
248.40        81.27368
248.85        69.23674
249.31        58.83553
249.77        52.16766
250.22         48.2732
250.68        45.30805
251.14         43.2451
251.59        43.08895
252.05        45.49113
252.51        50.35019
252.96        54.93472
253.42        56.97429
253.88        56.77417
254.33        54.87317
254.79        54.04549
255.25         56.6092
255.70        62.18719
256.16        69.73864
256.62        75.82922
257.07        75.47403
257.53        70.24782
257.99        63.44014
258.44        57.74985
258.90        55.47869
259.35        55.52911
259.81        57.04519
260.27        58.44589
260.72        57.90823
261.18        55.75039
261.63        52.67693
262.09        50.16127
262.55        49.28225
263.00        49.79967
263.46        51.17357
263.91         52.3047
264.37         52.0888
264.83        50.46482
265.28        47.99501
265.74        45.58807
266.19         44.0675
266.65        43.60332
267.11        43.76314
267.56        44.13155
268.02        44.06925
268.47        43.39972
268.93        42.40123
269.38        41.23003
269.84        40.15485
270.30        39.25723
270.75        38.41637
271.21        37.70609
271.66        37.20442
272.12        36.89748
272.57        36.74741
273.03        36.57132
273.48        36.05566
273.94        35.19822
274.39        34.07538
274.85         32.9593
275.31        32.09853
275.76        31.52653
276.22        31.19749
276.67        30.94605
277.13        30.61887
277.58        30.13174
278.04        29.55559
278.49        28.95309
278.95        28.51993
279.40        28.23021
279.86        28.08134
280.31        27.86952
280.77        27.40857
281.22        26.66441
281.68        25.78675
282.13        24.97023
282.59         24.5517
283.04        24.54011
283.50        24.83408
283.95        25.21101
284.41        25.32467
284.86        25.09097
285.32        24.65266
285.77        24.17236
286.22        23.93254
286.68         23.9871
287.13        24.20601
287.59        24.48322
288.04        24.62186
288.50        24.59286
288.95        24.44174
289.41        24.25634
289.86        24.09821
290.32        24.02528
290.77        24.00625
291.22        24.04093
291.68         24.1187
292.13        24.23857
292.59        24.43949
293.04        24.75962
293.50        25.26723
293.95        25.96283
294.40        26.82491
294.86        27.80103
295.31        28.80149
295.77        29.80523
296.22        30.81822
296.68        31.87705
297.13        33.02858
297.58        34.29171
298.04        35.65022
298.49        37.06743
298.95        38.50595
299.40        39.93771
299.85         41.3704
300.31        42.82755
300.76         44.3279
301.21        45.88035
301.67        47.49371
302.12        49.10123
302.58        50.67892
303.03        52.18701
303.48        53.66424
303.94         55.1869
304.39         56.8133
304.84         58.5719
305.30        60.43976
305.75        62.31058
306.20        64.10132
306.66        65.79726
307.11        67.39523
307.57         68.9342
308.02         70.3829
308.47         71.7693
308.93        73.09429
309.38        74.39188
309.83        75.82024
310.29         77.4017
310.74        79.09188
311.19        80.72736
311.65        82.01054
312.10        82.85954
312.55        83.35465
313.00        83.73251
313.46        84.37112
313.91        85.33291
314.36        86.53046
314.82        87.73842
315.27        88.59959
315.72        89.00731
316.18        89.10863
316.63        89.08144
317.08        89.24213
317.53        89.68328
317.99        90.30329
318.44        90.99789
318.89        91.57079
319.35        91.95505
319.80        92.21328
320.25        92.42271
320.70        92.70348
321.16        93.08383
321.61        93.55508
322.06        94.01919
322.51        94.33218
322.97        94.45274
323.42        94.43172
323.87        94.42795
324.32        94.71806
324.78        95.32011
325.23        96.21394
325.68        97.09569
326.13        97.46613
326.59        97.20853
327.04        96.50751
327.49        95.70735
327.94        95.38074
328.39        95.67372
328.85        96.38738
329.30        97.35748
329.75        98.05098
330.20        98.29176
330.66        98.22385
331.11        98.06104
331.56        98.07468
332.01        98.36204
332.46        98.79126
332.92        99.26587
333.37        99.78979
333.82        100.2675
334.27        100.7577
334.72        101.1741
335.17        101.3512
335.63        101.2788
336.08         101.065
336.53        100.9213
336.98        101.2465
337.43        102.1234
337.88         103.404
338.34        104.8413
338.79        106.1139
339.24         107.022
339.69        107.6581
340.14        107.9895
340.59        107.9891
341.05        107.7496
341.50        107.2933
341.95        106.8894
342.40        106.9588
342.85        107.5832
343.30        108.6411
343.75        109.8949
344.20        110.9209
344.66        111.5726
345.11        111.9562
345.56        112.1235
346.01        112.1747
346.46        112.1907
346.91        112.1588
347.36        112.1655
347.81         112.369
348.26        112.7777
348.72        113.3172
349.17        113.9225
349.62        114.5098
350.07        115.0208
350.52        115.5008
350.97        115.7499
351.42        115.4609
351.87        114.6444
352.32        113.4238
352.77          112.27
353.22        111.8759
353.67        112.3541
354.13        113.4969
354.58        114.8107
355.03        115.4139
355.48        115.0663
355.93        114.0213
356.38        112.7578
356.83        112.0082
357.28        111.9315
357.73        112.2737
358.18        112.6538
358.63        112.4708
359.08        111.5857
359.53        110.2464
359.98        108.7749
360.43        107.6167
360.88        106.8836
361.33        106.4231
361.78        106.0662
362.23        105.5586
362.68        104.8328
363.13         103.995
363.58        103.1309
364.03        102.3525
364.48        101.6842
364.93        101.0586
365.38        100.4524
365.83        99.84878
366.28        99.23908
366.73        98.64979
367.18        98.03939
367.63        97.33148
368.08        96.52286
368.53        95.63536
368.98          94.772
369.43        94.09639
369.88        93.63805
370.33        93.34918
370.78        93.10098
371.23        92.68179
371.68        92.03656
372.13        91.22215
372.58        90.36612
373.03        89.67265
373.48        89.18552
373.93        88.83266
374.38        88.49216
374.83        87.97794
375.28        87.24949
375.72        86.36192
376.17         85.4708
376.62        84.69783
377.07        84.09327
377.52        83.63786
377.97        83.27029
378.42        82.90647
378.87        82.51965
379.32        82.10152
379.77        81.75803
380.22        81.64115
380.67        81.74343
381.11        82.03767
381.56        82.20216
382.01        81.80023
382.46        80.79485
382.91        79.39764
383.36        78.03511
383.81        77.28862
384.26        77.24383
384.71         77.6993
385.15        78.35772
385.60        78.69624
386.05        78.55254
386.50        78.08617
386.95        77.42637
387.40        76.78074
387.85        76.23964
388.29        75.69017
388.74        75.25068
389.19        74.89878
389.64        74.62187
390.09        74.42905
390.54        74.26886
390.98        74.02682
391.43        73.71652
391.88        73.35146
392.33        72.99218
392.78        72.68625
393.23        72.43626
393.67        72.30705
394.12        72.28619
394.57        71.93645
395.02        71.37067
395.47        71.24017
395.91        71.48962
396.36        71.42603
396.81        71.03764
397.26        70.72121
397.71        70.51471
398.15        70.28188
398.60        70.10602
399.05        69.93813
399.50        69.79366
399.95        69.74145
400.39        69.76302
400.84        69.70232
401.29        69.52033
401.74        69.24323
402.18          68.882
402.63        68.39687
403.08        67.90938
403.53        67.59969
403.97        67.49239
404.42        67.53282
404.87        67.64449
405.32        67.65376
405.76        67.50842
406.21        67.41734
406.66        67.35699
407.11        67.05219
407.55        66.68871
408.00        66.74949
408.45        67.18212
408.90         67.6303
409.34        67.79951
409.79        67.18227
410.24        66.06583
410.68        65.47318
411.13        65.50301
411.58        65.58483
412.03        65.58102
412.47        65.53423
412.92        65.38156
413.37        65.14789
413.81        64.92293
414.26        64.90211
414.71        65.08735
415.15        65.43456
415.60        65.82046
416.05        66.10358
416.49        66.22907
416.94        66.23057
417.39        66.14745
417.83        66.02853
418.28        65.90818
418.73        65.77348
419.17        65.66269
419.62        65.64173
420.07        65.70943
420.51         65.8273
420.96        65.97089
421.41        66.02026
421.85        65.93225
422.30        65.87083
422.74        65.77501
423.19        65.52824
423.64        65.17028
424.08        64.99862
424.53        65.05222
424.98        65.12594
425.42        65.20997
425.87        65.60676
426.31        66.12132
426.76         65.8916
427.21        65.08231
427.65        64.82599
428.10        65.14867
428.54        65.30465
428.99        65.33627
429.44         65.3961
429.88        65.54211
430.33        66.22895
430.77        67.11919
431.22        67.12855
431.66        66.62589
432.11        66.00845
432.56        65.65143
433.00        65.45422
433.45        65.57655
433.89        66.43858
434.34         67.3297
434.78        67.92136
435.23        66.72562
435.67        64.98517
436.12        65.29847
436.57        65.41632
437.01        65.92609
437.46         66.1804
437.90        66.20039
438.35        65.54305
438.79         65.9843
439.24        66.05821
439.68        66.20095
440.13        66.42361
440.57        66.73875
441.02        66.68496
441.46        66.35316
441.91        67.02644
442.35        68.19888
442.80        67.79634
443.24        66.21529
443.69        66.24971
444.13         67.7297
444.58        68.27304
445.02        67.78544
445.47        67.61936
445.91         67.8744
446.36        68.00793
446.80        67.99088
447.24        68.32838
447.69         68.5181
448.13        68.37695
448.58        68.63184
449.02        68.58119
449.47        68.51117
449.91        68.43269
450.36        68.38815
450.80        68.33142
451.25        68.28474
451.69        68.24872
452.13        68.23654
452.58        68.24831
453.02         68.2628
453.47        68.24239
453.91        68.15114
454.36        68.04376
454.80        67.97636
455.24        67.71591
455.69        67.20705
456.13        67.37757
456.58        67.54178
457.02        66.40033
457.46        66.00632
457.91        66.53674
458.35        66.89868
458.79        66.99661
459.24        66.47417
459.68        65.57903
460.13        64.50085
460.57        65.01714
461.01        65.03908
461.46        65.12514
461.90        65.54475
462.34        66.98246
462.79        65.87271
463.23        65.85091
463.68        65.79536
464.12        65.75999
464.56        65.59265
465.01        64.85879
465.45        63.83432
465.89        63.62475
466.34        64.09239
466.78        64.28078
467.22        64.13716
467.67         63.6149
468.11        63.61507
468.55        63.52689
468.99        63.56195
469.44        63.45082
469.88        63.20653
470.32        63.03783
470.77        62.96032
471.21        62.89854
471.65        62.83583
472.10        62.79646
472.54        62.78609
472.98        62.75518
473.42        62.68046
473.87        62.78049
474.31        62.91835
474.75        62.48506
475.20        61.70949
475.64        61.65816
476.08        62.26922
476.52        62.36328
476.97        61.85856
477.41        61.82862
477.85        62.08762
478.29        61.33558
478.74         61.8297
479.18        61.81925
479.62        61.88498
480.06        61.83014
480.50        61.73121
480.95        61.81223
481.39        62.13762
481.83        61.45683
482.27         61.5091
482.72        61.92955
483.16        61.56374
483.60        61.44539
484.04        61.49306
484.48        61.79057
484.93        62.24723
485.37        61.49308
485.81        61.21167
486.25        60.91003
486.69        63.73097
487.14         64.6891
487.58        62.07323
488.02        61.84703
488.46        60.92921
488.90        60.41694
489.34        61.69778
489.79        62.67778
490.23        61.70666
490.67        61.20331
491.11        60.78065
491.55        60.63692
491.99        60.71769
492.43        60.59754
492.88        60.30685
493.32        60.28424
493.76        60.50895
494.20        60.63077
494.64        60.60747
495.08        60.59527
495.52         60.5771
495.96        60.43065
496.41        60.20675
496.85        60.11102
497.29         60.0659
497.73        60.19087
498.17        59.73732
498.61        59.73508
499.05        59.93549
499.49        60.14307
499.93        60.07658
500.37        60.14846
500.82        60.28529
501.26        60.13415
501.70        59.73314
502.14        60.11147
502.58        60.09508
503.02        60.27411
503.46        60.28481
503.90        60.36377
504.34        60.47209
504.78        60.44757
505.22        60.26403
505.66        60.05068
506.10        59.91437
506.54        59.68631
506.98        59.32177
507.42        60.04025
507.86        59.81035
508.30        59.70272
508.74         59.8703
509.18        59.76789
509.62        59.63556
510.06        59.50931
510.50         59.4301
510.94        59.35407
511.38         59.2863
511.82        59.25555
512.26        59.26371
512.70        59.30789
513.14        59.35425
513.58        59.39728
514.02        59.43692
514.46        59.37477
514.90        59.21526
515.34        59.49227
515.78        59.38023
516.22        59.52436
516.66         59.6308
517.10        59.64614
517.54        59.55149
517.98        59.38685
518.42        59.20583
518.86        59.06367
519.30         58.9831
519.74        58.96502
520.18        58.99791
520.62        59.01024
521.06        59.01738
521.50        59.14747
521.93        59.35092
522.37        59.42415
522.81        59.35329
523.25        59.21601
523.69         59.0955
524.13        59.09752
524.57        59.23761
525.01        59.47301
525.45        59.69349
525.89        59.72044
526.32        59.51358
526.76        59.15918
527.20        58.75603
527.64        58.46166
528.08        58.32591
528.52        58.30087
528.96        58.35987
529.40        58.46054
529.83        58.57334
530.27          58.714
530.71        58.84285
531.15         58.9004
531.59        58.87492
532.03        58.77282
532.46        58.62423
532.90        58.52557
533.34        58.49063
533.78         58.4678
534.22        58.43613
534.66        58.43247
535.09         58.4067
535.53        58.23722
535.97         57.9734
536.41        57.84177
536.85        57.86499
537.28        57.92739
537.72        58.00744
538.16        58.11368
538.60        58.22786
539.04        58.34853
539.47        58.44552
539.91        58.50293
540.35        58.50985
540.79         58.4899
541.22         58.4584
541.66        58.44254
542.10        58.44656
542.54        58.47618
542.97        58.49834
543.41        58.48321
543.85        58.41447
544.29        58.30695
544.72        58.19051
545.16        58.13233
545.60        58.13556
546.04        58.23221
546.47        58.36847
546.91        58.38342
547.35        58.31003
547.79        58.29674
548.22        58.35662
548.66        58.52802
549.10        58.76609
549.53        58.65643
549.97        58.28071
550.41        58.03881
550.84        58.02763
551.28        58.09931
551.72        58.17811
552.15         58.3227
552.59        58.53925
553.03         58.0867
553.46        58.29252
553.90        58.18398
554.34        58.14709
554.77        58.09819
555.21        58.10428
555.65        58.11824
556.08        58.44001
556.52        58.55043
556.96        58.51582
557.39        58.47551
557.83        58.44143
558.27        58.25385
558.70        57.95681
559.14        57.81624
559.57        57.81902
560.01        57.77167
560.45         57.7113
560.88        57.85574
561.32        58.17259
561.75        58.43345
562.19        58.57491
562.63          58.488
563.06         58.2494
563.50        58.17213
563.93        58.22354
564.37        58.29198
564.80        58.35653
565.24        58.24018
565.68        57.84922
566.11        58.41367
566.55         57.8496
566.98        57.70703
567.42        57.51123
567.85        57.70583
568.29        58.20659
568.72        58.48923
569.16        58.63897
569.60        58.75557
570.03        59.01291
570.47        59.35109
570.90        59.85048
571.34        59.07901
571.77        59.62947
572.21        59.82775
572.64        59.63141
573.08         59.9721
573.51         59.1853
573.95        59.21238
574.38        59.65333
574.82        60.15678
