SpectraSmart Spectrum 2.9.0.0
--------- Device Information -----------
Spectrum Name :  反射率_0
Saving Time :  2024/04/26 23:22:33
Spectro-Module Model Name : SE2030-DUVN
Spectro-Module Serial Number : OS361AC55029948
Wavelength Start : 200
Wavelength End : 1025
Wavelength Unit : Wavelength(nm)
Spectrum Unit : Reflectance(%)
-----------Spectrum Setting ------------
Integration Time : 20ms
Average : 10
Boxcar : 0
Background removal :  enabled
linearity correction :  enabled
SC :  disabled
Intensity correction :  disabled
DWT denoise :  enabled
savitzky-golay :  disabled
FFT :  disabled
Running average :  disabled
Kalman :  disabled
High pass :  disabled
---------------BEGIN--------------------
Wavelength(nm)             Reflectance(%)
200.29               0
200.75        43.03748
201.21        41.66921
201.67        40.77692
202.13        40.20824
202.58        39.76907
203.04        39.88597
203.50        40.66069
203.96        41.86929
204.42        43.43039
204.88        45.27775
205.34        47.43512
205.80        50.15512
206.26         52.8905
206.72         54.6083
207.18        55.53982
207.64        56.26016
208.10        57.01715
208.55        58.70076
209.01        59.31131
209.47        54.72322
209.93        46.45703
210.39        38.82428
210.85        34.68486
211.31        34.90135
211.77        39.81416
212.23        53.67929
212.69        89.99149
213.14        150.7887
213.60        147.0174
214.06        103.0473
214.52        74.36906
214.98        63.44026
215.44        61.15051
215.90        61.72644
216.36        63.59604
216.81         64.9247
217.27        65.24372
217.73        66.53323
218.19        67.00226
218.65        61.27895
219.11         51.7905
219.57        43.24025
220.02         39.7269
220.48        43.63081
220.94         54.9295
221.40        75.76307
221.86        105.7536
222.32        125.7866
222.77        118.9485
223.23        97.64507
223.69        76.35202
224.15        63.42546
224.61        57.47343
225.06        54.56939
225.52        53.59078
225.98        53.33565
226.44        53.30218
226.90        53.89072
227.36        54.34225
227.81        53.28504
228.27        50.83118
228.73        47.43499
229.19        44.34554
229.65        42.97664
230.10        43.32251
230.56         44.9296
231.02        46.71531
231.48        46.98807
231.93        45.47666
232.39        43.09293
232.85         40.8973
233.31        40.29792
233.77        41.38306
234.22        43.62229
234.68        46.11766
235.14        47.58749
235.60        47.64926
236.05        46.69972
236.51        45.20842
236.97         44.1979
237.43         44.1955
237.88        45.03144
238.34        46.49104
238.80        48.47502
239.26        51.05706
239.71        54.84874
240.17        59.90688
240.63        66.03679
241.08        72.84864
241.54        79.49791
242.00        86.12147
242.46        94.23504
242.91        105.9984
243.37        122.2897
243.83        144.4158
244.28        166.2154
244.74        173.8487
245.20        164.0655
245.66        146.4208
246.11        130.4724
246.57        117.8841
247.03        106.9727
247.48        95.71398
247.94        83.42999
248.40        73.32847
248.85        66.48374
249.31        63.45378
249.77        63.99988
250.22        67.47291
250.68        73.78619
251.14        82.37898
251.59        89.06503
252.05        90.79875
252.51        89.50191
252.96        85.51385
253.42        80.11427
253.88        74.28458
254.33        67.82503
254.79        64.32277
255.25        66.66014
255.70        73.90662
256.16        84.57635
256.62        93.47633
257.07        92.94405
257.53        85.32804
257.99         75.7488
258.44        68.06387
258.90        65.46442
259.35        66.42912
259.81        69.35494
260.27        72.37828
260.72        73.31346
261.18        72.23625
261.63         69.8686
262.09        67.39813
262.55        65.41308
263.00        63.89704
263.46        62.77032
263.91         61.5456
264.37        60.02727
264.83        58.20825
265.28        56.22914
265.74        54.62855
266.19        53.72285
266.65         53.5653
267.11        53.87497
267.56        54.22595
268.02        53.96175
268.47        52.93087
268.93        51.38612
269.38        49.63086
269.84        48.20103
270.30        47.21539
270.75        46.48747
271.21        45.91341
271.66        45.27024
272.12        44.48983
272.57        43.63459
273.03        42.69778
273.48        41.64212
273.94        40.55093
274.39        39.40939
274.85        38.37075
275.31        37.50363
275.76        36.79754
276.22        36.26907
276.67        35.82627
277.13        35.43298
277.58         35.0076
278.04        34.56861
278.49        34.08058
278.95        33.61862
279.40        33.13676
279.86        32.69683
280.31        32.17841
280.77        31.52459
281.22        30.71898
281.68         29.8749
282.13        29.12275
282.59        28.72561
283.04         28.6712
283.50        28.88895
283.95        29.19232
284.41        29.29318
284.86        29.11997
285.32        28.79881
285.77        28.44953
286.22        28.30722
286.68        28.41818
287.13        28.65958
287.59        28.96924
288.04        29.21039
288.50        29.35719
288.95         29.4188
289.41          29.422
289.86        29.32998
290.32        29.19721
290.77        29.03397
291.22        28.90614
291.68        28.89643
292.13        29.03014
292.59         29.3252
293.04        29.80403
293.50        30.50838
293.95        31.42589
294.40        32.54957
294.86        33.81484
295.31        35.10699
295.77         36.4016
296.22        37.69745
296.68        39.05417
297.13        40.55954
297.58        42.23156
298.04        44.02774
298.49        45.86946
298.95        47.65715
299.40         49.3474
299.85        50.98064
300.31        52.59806
300.76        54.23857
301.21        55.93347
301.67         57.6893
302.12        59.48244
302.58        61.36637
303.03         63.2935
303.48        65.27913
303.94        67.31385
304.39         69.3098
304.84        71.27967
305.30        73.24845
305.75        75.18628
306.20        77.14832
306.66        79.14314
307.11        81.09456
307.57        82.98609
308.02        84.68452
308.47        86.19403
308.93         87.5608
309.38        88.81175
309.83        90.10723
310.29         91.4917
310.74        92.92599
311.19        94.32034
311.65        95.49731
312.10        96.39249
312.55        97.04681
313.00        97.61735
313.46        98.35314
313.91        99.28387
314.36        100.3745
314.82        101.4318
315.27        102.1596
315.72        102.4798
316.18        102.5176
316.63        102.4823
317.08        102.7505
317.53        103.4062
317.99        104.3176
318.44        105.2895
318.89        105.9699
319.35         106.255
319.80        106.2584
320.25        106.1314
320.70        106.1176
321.16        106.2945
321.61        106.6332
322.06        107.0363
322.51        107.3564
322.97        107.5395
323.42        107.6399
323.87        107.7912
324.32         108.225
324.78        108.9376
325.23        109.9219
325.68        110.8561
326.13        111.2252
326.59        110.9178
327.04        110.1261
327.49        109.2475
327.94        108.9439
328.39        109.3795
328.85        110.3311
329.30        111.5795
329.75        112.4538
330.20        112.7302
330.66        112.5761
331.11        112.2806
331.56        112.2311
332.01        112.5577
332.46        113.0972
332.92        113.6776
333.37         114.194
333.82         114.521
334.27        114.7698
334.72        114.9455
335.17        115.0263
335.63         115.038
336.08        115.0444
336.53         115.189
336.98        115.7641
337.43        116.8071
337.88        118.1923
338.34        119.6716
338.79        120.9409
339.24        121.8089
339.69        122.3682
340.14        122.6038
340.59        122.5271
341.05        122.2426
341.50        121.7555
341.95        121.3542
342.40        121.4797
342.85        122.2105
343.30        123.4329
343.75        124.8242
344.20        125.8196
344.66        126.2606
345.11        126.2972
345.56        126.1447
346.01        126.1671
346.46        126.4806
346.91        126.9664
347.36        127.5209
347.81        128.0048
348.26        128.3565
348.72        128.6113
349.17        128.8095
349.62        129.0423
350.07        129.3185
350.52        129.6222
350.97        129.7779
351.42        129.5217
351.87        128.8424
352.32        127.8475
352.77        126.8877
353.22        126.4638
353.67         126.657
354.13        127.3159
354.58        128.0686
355.03        128.2472
355.48        127.6863
355.93        126.5861
356.38        125.3663
356.83        124.6614
357.28        124.5922
357.73        124.9297
358.18         125.296
358.63         125.092
359.08        124.1734
359.53        122.7672
359.98         121.184
360.43        119.8611
360.88        118.9143
361.33        118.2077
361.78        117.5881
362.23        116.8244
362.68        115.8669
363.13        114.8253
363.58        113.8066
364.03        112.9482
364.48        112.2749
364.93        111.7114
365.38        111.1916
365.83        110.6314
366.28        109.9971
366.73        109.3148
367.18        108.5859
367.63        107.8055
368.08        106.9848
368.53        106.1346
368.98        105.2809
369.43        104.4653
369.88         103.702
370.33        102.9802
370.78        102.3103
371.23        101.7104
371.68         101.173
372.13        100.6822
372.58        100.1831
373.03         99.5873
373.48        98.86651
373.93        98.03579
374.38         97.1358
374.83         96.2457
375.28        95.39883
375.72        94.56777
376.17        93.79351
376.62        93.01507
377.07        92.24261
377.52        91.52688
377.97        90.89627
378.42        90.40566
378.87        90.05923
379.32        89.78435
379.77        89.61717
380.22        89.61463
380.67         89.7426
381.11        90.01248
381.56        90.11184
382.01        89.62938
382.46        88.54865
382.91        87.07253
383.36        85.65787
383.81         84.9336
384.26         84.9835
384.71        85.58765
385.15        86.39746
385.60        86.79742
386.05        86.60119
386.50        85.99802
386.95        85.15292
387.40        84.33195
387.85        83.65179
388.29        82.98447
388.74        82.46033
389.19        82.05364
389.64        81.74385
390.09        81.53458
390.54        81.36633
390.98        81.10703
391.43        80.76969
391.88        80.37621
392.33         79.9744
392.78        79.59801
393.23         79.2597
393.67        79.01806
394.12        78.91065
394.57        78.59998
395.02        78.18414
395.47        78.19627
395.91        78.55772
396.36        78.60545
396.81        78.31099
397.26        78.03795
397.71        77.78696
398.15        77.42493
398.60        77.06297
399.05        76.56003
399.50         76.0442
399.95        75.97124
400.39        76.23994
400.84        76.11929
401.29        75.59512
401.74        75.23544
402.18        75.06495
402.63        74.68843
403.08        74.22496
403.53        74.02708
403.97        74.11408
404.42        74.37086
404.87         74.6414
405.32        74.66074
405.76        74.36595
406.21        73.94386
406.66        73.50349
407.11        73.11458
407.55        72.93272
408.00        73.07385
408.45        73.44691
408.90        73.85667
409.34        74.04749
409.79        73.55879
410.24        72.64825
410.68        72.18955
411.13        72.27223
411.58        72.42899
412.03        72.49371
412.47        72.40186
412.92        72.08203
413.37        71.60448
413.81        71.12379
414.26        70.92268
414.71        71.02165
415.15        71.36971
415.60         71.7871
416.05        72.03867
416.49        72.04993
416.94        71.87926
417.39        71.65652
417.83        71.56796
418.28        71.66644
418.73        71.88773
419.17        72.13902
419.62        72.27942
420.07        72.26073
420.51        72.10852
420.96        71.93076
421.41        71.80684
421.85        71.73276
422.30        71.81774
422.74        71.90089
423.19        71.69353
423.64        71.22653
424.08        70.94175
424.53        70.89642
424.98        70.87811
425.42        70.90205
425.87        71.17216
426.31        71.54948
426.76        71.53414
427.21        71.20883
427.65        71.03497
428.10        70.97502
428.54        71.28442
428.99         71.1196
429.44        70.91902
429.88        70.66419
430.33        71.46467
430.77        72.81373
431.22        73.24498
431.66          72.661
432.11        71.71457
432.56        70.87542
433.00        70.69748
433.45        71.29632
433.89        72.41634
434.34        73.28376
434.78        73.45646
435.23        72.48552
435.67        70.64567
436.12        70.61402
436.57        70.91106
437.01        71.93857
437.46        72.30959
437.90        71.94756
438.35        71.35375
438.79         71.3961
439.24        71.36974
439.68        71.47967
440.13        71.87482
440.57        72.46192
441.02        72.57539
441.46        72.27255
441.91        72.75388
442.35        73.64909
442.80        73.40648
443.24        72.28146
443.69        72.25735
444.13        73.22793
444.58        73.58618
445.02        73.27232
445.47        73.19026
445.91        73.39977
446.36        73.58465
446.80         73.7203
447.24         74.0225
447.69         74.1715
448.13        74.28001
448.58        74.26822
449.02        74.14839
449.47        73.97568
449.91        73.81213
450.36        73.71333
450.80        73.64301
451.25        73.63524
451.69        73.68145
452.13        73.78668
452.58        73.93243
453.02        74.08826
453.47        74.21309
453.91        74.27814
454.36        74.29674
454.80        74.22887
455.24        73.98429
455.69        73.58214
456.13        73.12502
456.58        72.75552
457.02        72.30016
457.46        71.96485
457.91         72.2784
458.35        72.92955
458.79        72.95658
459.24        72.34973
459.68        71.50368
460.13        70.73492
460.57        70.43438
461.01        70.75772
461.46        70.93893
461.90        71.34039
462.34        72.45097
462.79        72.08564
463.23        72.22711
463.68        72.14803
464.12        71.85281
464.56        71.36215
465.01        70.68256
465.45        69.98578
465.89        69.91936
466.34        70.33483
466.78        70.49365
467.22        70.36617
467.67        70.05265
468.11        70.11031
468.55        70.12926
468.99        70.20621
469.44        70.12923
469.88        69.90714
470.32        69.70876
470.77        69.57092
471.21        69.46981
471.65        69.40501
472.10        69.39017
472.54        69.41005
472.98        69.41692
473.42        69.38715
473.87          69.446
474.31        69.49268
474.75        69.20381
475.20        68.70014
475.64        68.53934
476.08        68.76895
476.52        68.72356
476.97        68.32543
477.41        68.56899
477.85         69.0876
478.29        68.16541
478.74        68.93961
479.18        69.20904
479.62         68.9464
480.06        68.90466
480.50        68.82309
480.95         68.6347
481.39        68.31704
481.83        68.46227
482.27        68.02807
482.72        68.59675
483.16        68.38254
483.60        68.57317
484.04        68.69452
484.48         68.9288
484.93        69.01942
485.37         68.9744
485.81        67.68102
486.25        67.77976
486.69        68.60467
487.14        69.87786
487.58        68.40224
488.02        68.86552
488.46        67.96527
488.90        67.50081
489.34        69.15775
489.79        69.72759
490.23        69.01382
490.67        68.27401
491.11        67.61914
491.55        67.52481
491.99        67.88412
492.43         67.8777
492.88         67.4856
493.32         67.3517
493.76        67.51337
494.20        67.65862
494.64         67.7636
495.08        67.92336
495.52        68.07617
495.96        68.10963
496.41        68.01992
496.85        67.86903
497.29        67.61636
497.73        67.62643
498.17        67.07259
498.61        66.98868
499.05          67.105
499.49        67.25653
499.93        67.17712
500.37        67.33974
500.82        67.63364
501.26        67.61938
501.70        67.63712
502.14        67.60282
502.58        67.64771
503.02        67.72752
503.46        67.94235
503.90        67.87898
504.34        68.19991
504.78        68.15459
505.22        67.93117
505.66        67.59224
506.10        67.26009
506.54        67.03064
506.98        66.92141
507.42        67.16284
507.86        67.29785
508.30        67.29852
508.74        67.38646
509.18        67.31242
509.62        67.21365
510.06        67.12946
510.50        67.08338
510.94        67.03994
511.38         67.0116
511.82         67.0379
512.26        67.12403
512.70        67.24506
513.14        67.33664
513.58        67.36582
514.02        67.33467
514.46        66.96539
514.90        66.87412
515.34        66.77456
515.78        66.85276
516.22        67.04572
516.66        67.27492
517.10         67.4028
517.54        67.38721
517.98        67.27965
518.42        67.12048
518.86        66.97572
519.30         66.8727
519.74        66.78848
520.18        66.73418
520.62        66.72708
521.06        66.76824
521.50        66.86711
521.93        66.98775
522.37        67.04398
522.81         67.0279
523.25        66.95078
523.69        66.87923
524.13        66.92375
524.57        67.09388
525.01         67.3407
525.45         67.5688
525.89        67.62517
526.32        67.47176
526.76        67.18899
527.20        66.84927
527.64        66.57065
528.08        66.39734
528.52        66.29517
528.96        66.27247
529.40        66.33991
529.83        66.47975
530.27        66.69506
530.71        66.90958
531.15        67.00539
531.59        66.95774
532.03        66.79072
532.46        66.57239
532.90        66.46408
533.34        66.48921
533.78        66.56697
534.22        66.63556
534.66        66.68094
535.09        66.63479
535.53        66.38022
535.97         66.0014
536.41        65.79977
536.85        65.81305
537.28        65.89176
537.72        66.00435
538.16        66.15122
538.60         66.3037
539.04        66.46098
539.47        66.57163
539.91        66.60018
540.35        66.52914
540.79        66.37225
541.22        66.18793
541.66         66.0947
542.10        66.11178
542.54        66.21235
542.97        66.32627
543.41        66.36993
543.85        66.31468
544.29        66.20339
544.72        66.07941
545.16        66.04013
545.60        66.09074
546.04        66.23489
546.47        66.38171
546.91        66.52696
547.35        66.62707
547.79         66.6873
548.22        66.70032
548.66        66.67562
549.10        66.67225
549.53         66.5787
549.97        66.43935
550.41        66.24802
550.84        66.07804
551.28        66.11533
551.72        66.29431
552.15        66.37788
552.59        66.38497
553.03        66.17897
553.46        66.37495
553.90        66.37432
554.34          66.343
554.77        66.33548
555.21        66.39008
555.65        66.33971
556.08        66.44807
556.52        66.51575
556.96        66.56953
557.39        66.50857
557.83        66.36459
558.27        66.18652
558.70        66.00324
559.14        65.92988
559.57        65.93772
560.01        65.87659
560.45        65.77673
560.88        65.89635
561.32        66.20746
561.75        66.33789
562.19        66.30009
562.63        66.31665
563.06        66.38059
563.50        66.37186
563.93        66.24642
564.37        66.17941
564.80         66.1998
565.24        66.08449
565.68        65.72173
566.11        66.38807
566.55        65.70169
566.98        65.62261
567.42        65.54935
567.85        65.60705
568.29        65.81638
568.72        66.13566
569.16        66.56398
569.60        66.83003
570.03        66.81858
570.47        66.95892
570.90        67.30869
571.34        66.60169
571.77         66.7746
572.21         67.5075
572.64        66.83493
573.08        67.31438
573.51        66.53511
573.95        66.54805
574.38        67.02184
574.82        66.90283
