SpectraSmart Spectrum 2.9.0.0
--------- Device Information -----------
Spectrum Name :  反射率_0
Saving Time :  2024/04/26 23:17:24
Spectro-Module Model Name : SE2030-DUVN
Spectro-Module Serial Number : OS361AC55029948
Wavelength Start : 200
Wavelength End : 1025
Wavelength Unit : Wavelength(nm)
Spectrum Unit : Reflectance(%)
-----------Spectrum Setting ------------
Integration Time : 20ms
Average : 10
Boxcar : 0
Background removal :  enabled
linearity correction :  enabled
SC :  disabled
Intensity correction :  disabled
DWT denoise :  enabled
savitzky-golay :  disabled
FFT :  disabled
Running average :  disabled
Kalman :  disabled
High pass :  disabled
---------------BEGIN--------------------
Wavelength(nm)             Reflectance(%)
200.29               0
200.75        35.14434
201.21        31.73226
201.67        28.97218
202.13        28.60612
202.58        30.67816
203.04        35.42554
203.50        42.02203
203.96        46.57595
204.42         46.2875
204.88        41.35901
205.34        34.55999
205.80        31.82436
206.26        34.44485
206.72        39.68785
207.18          44.737
207.64         47.4651
208.10        47.88546
208.55        47.19049
209.01        44.94534
209.47        42.16626
209.93        40.81101
210.39        40.73435
210.85        41.68897
211.31        44.10926
211.77        48.91919
212.23        59.09965
212.69        84.99197
213.14        133.8647
213.60        140.2621
214.06        112.7767
214.52        89.83917
214.98        74.39845
215.44        61.29779
215.90        47.17412
216.36        34.35708
216.81        27.56503
217.27        28.70461
217.73        38.36765
218.19        55.03533
218.65        64.24229
219.11        58.71689
219.57        47.35698
220.02        39.21063
220.48        38.98298
220.94        46.11569
221.40        60.70321
221.86         82.0705
222.32        95.97598
222.77        90.07996
223.23         74.2485
223.69        58.65984
224.15        48.79468
224.61         43.7526
225.06        40.91648
225.52        39.67764
225.98        39.42115
226.44        39.79781
226.90        40.99427
227.36        42.37271
227.81        42.73785
228.27        41.99834
228.73        40.38367
229.19        38.87944
229.65        38.68176
230.10        39.80432
230.56        41.88156
231.02        43.81999
231.48        43.91011
231.93        41.97607
232.39        39.02887
232.85        36.33649
233.31        35.53852
233.77        36.76212
234.22        39.43481
234.68         42.5387
235.14        44.59627
235.60        45.14274
236.05        44.55606
236.51         43.3854
236.97        42.80812
237.43        43.32279
237.88        44.64704
238.34          46.235
238.80        47.42857
239.26        48.09119
239.71        48.77437
240.17        49.74824
240.63        52.06624
241.08         56.3907
241.54        62.03257
242.00        69.14063
242.46        78.65432
242.91        92.42987
243.37        112.5686
243.83        139.3899
244.28        161.1177
244.74        160.1446
245.20        136.1472
245.66        107.5888
246.11        90.70571
246.57        85.85471
247.03        88.46026
247.48        92.87785
247.94        90.00391
248.40        81.00853
248.85        71.48284
249.31         64.6517
249.77        61.57848
250.22        61.52203
250.68        63.35582
251.14        67.01539
251.59         71.4175
252.05        75.01959
252.51        78.08355
252.96        78.69445
253.42        75.85572
253.88        70.60175
254.33        63.86483
254.79        59.19882
255.25        59.33923
255.70        63.67396
256.16        70.79258
256.62        77.15867
257.07        77.51089
257.53        73.15337
257.99        67.32875
258.44        62.39357
258.90        60.51419
259.35        60.67273
259.81        62.05415
260.27        63.45555
260.72        63.53239
261.18        62.45036
261.63        60.55561
262.09        58.81313
262.55        57.70737
263.00        57.11372
263.46        56.90116
263.91        56.44965
264.37        55.31615
264.83         53.5076
265.28        51.30774
265.74         49.3401
266.19        48.05528
266.65        47.55351
267.11          47.525
267.56        47.66568
268.02        47.50446
268.47        46.90369
268.93         46.0607
269.38        45.04413
269.84        44.01458
270.30        43.02825
270.75        42.01057
271.21        41.10185
271.66        40.46871
272.12        40.11722
272.57        39.97124
273.03        39.80559
273.48        39.23945
273.94        38.26062
274.39        36.97837
274.85        35.68747
275.31        34.65564
275.76        33.92397
276.22        33.43814
276.67        33.05354
277.13         32.6538
277.58        32.15274
278.04        31.61799
278.49        31.05468
278.95        30.57934
279.40         30.1564
279.86        29.80978
280.31        29.41582
280.77        28.90919
281.22        28.25958
281.68        27.57118
282.13        26.93732
282.59        26.55947
283.04        26.43323
283.50        26.51888
283.95        26.68611
284.41         26.7385
284.86        26.62345
285.32        26.41811
285.77        26.22114
286.22        26.23474
286.68        26.48233
287.13        26.85251
287.59        27.22467
288.04        27.37475
288.50        27.28151
288.95        26.99981
289.41        26.66519
289.86        26.40634
290.32         26.3024
290.77        26.30974
291.22        26.40371
291.68        26.53053
292.13         26.6785
292.59         26.9013
293.04        27.25833
293.50        27.85202
293.95        28.68493
294.40        29.71735
294.86        30.86817
295.31        32.00406
295.77        33.09803
296.22         34.1762
296.68        35.29912
297.13        36.54745
297.58        37.95508
298.04        39.49654
298.49        41.13908
298.95        42.85226
299.40        44.59746
299.85        46.37186
300.31        48.17011
300.76        49.96448
301.21        51.75274
301.67        53.55418
302.12        55.31609
302.58        57.04745
303.03        58.71752
303.48         60.3662
303.94          62.071
304.39        63.88168
304.84        65.83153
305.30        67.90331
305.75        69.99859
306.20        72.05168
306.66        74.04598
307.11        75.96137
307.57        77.81252
308.02        79.52003
308.47        81.10653
308.93         82.5884
309.38        84.02079
309.83        85.60869
310.29        87.38581
310.74        89.29089
311.19        91.14342
311.65        92.61417
312.10        93.60718
312.55        94.21219
313.00        94.67192
313.46        95.37498
313.91        96.38637
314.36        97.61746
314.82        98.84821
315.27        99.73331
315.72        100.1684
316.18        100.3059
316.63         100.309
317.08        100.4758
317.53        100.8944
317.99        101.4594
318.44        102.0941
318.89        102.6448
319.35          103.05
319.80        103.3648
320.25         103.611
320.70        103.8193
321.16        104.0092
321.61        104.2121
322.06        104.4166
322.51        104.6216
322.97        104.8189
323.42        105.0115
323.87        105.2853
324.32        105.8003
324.78        106.5274
325.23        107.4835
325.68        108.3666
326.13        108.6886
326.59        108.3502
327.04        107.5346
327.49        106.6234
327.94        106.2557
328.39        106.5912
328.85        107.4134
329.30        108.5363
329.75         109.352
330.20        109.6539
330.66        109.5979
331.11        109.4103
331.56        109.3784
332.01        109.6105
332.46        109.9697
332.92         110.365
333.37        110.8289
333.82        111.2726
334.27        111.7607
334.72        112.2086
335.17        112.4468
335.63        112.4575
336.08        112.3468
336.53        112.3216
336.98        112.7768
337.43        113.7904
337.88        115.2156
338.34        116.7734
338.79         118.108
339.24        119.0059
339.69          119.56
340.14        119.7972
340.59        119.7915
341.05        119.6492
341.50        119.3571
341.95        119.0898
342.40        119.1177
342.85        119.5034
343.30        120.1922
343.75        121.0489
344.20        121.8179
344.66        122.4086
345.11         122.875
345.56        123.2283
346.01        123.5032
346.46        123.7365
346.91        123.9183
347.36        124.0975
347.81        124.3717
348.26        124.7451
348.72        125.1686
349.17        125.6044
349.62        126.0259
350.07        126.4007
350.52        126.7573
350.97        126.9434
351.42        126.7214
351.87         126.095
352.32        125.1609
352.77        124.2656
353.22        123.9148
353.67        124.1895
354.13        124.9324
354.58        125.7887
355.03        126.1136
355.48        125.7336
355.93        124.8356
356.38        123.7784
356.83         123.106
357.28        122.9345
357.73         123.073
358.18        123.2285
358.63        122.9428
359.08        122.1068
359.53        120.8983
359.98        119.5682
360.43        118.4627
360.88        117.6658
361.33        117.0693
361.78         116.514
362.23        115.7604
362.68        114.7647
363.13         113.632
363.58        112.5099
364.03         111.607
364.48        110.9579
364.93        110.4686
365.38        110.0237
365.83        109.4506
366.28        108.7023
366.73         107.848
367.18        106.9289
367.63         106.003
368.08        105.1004
368.53        104.1985
368.98        103.3421
369.43         102.603
369.88        101.9865
370.33        101.4814
370.78        100.9987
371.23        100.3878
371.68        99.61928
372.13        98.73434
372.58         97.8446
373.03        97.13097
373.48        96.62316
373.93        96.24673
374.38        95.88843
374.83        95.37502
375.28        94.66203
375.72        93.79696
376.17        92.89796
376.62         92.0237
377.07        91.22626
377.52        90.51698
377.97        89.90944
378.42        89.44195
378.87        89.11044
379.32        88.85474
379.77        88.71516
380.22         88.7481
380.67        88.91344
381.11        89.21268
381.56        89.31265
382.01        88.77128
382.46        87.57255
382.91        85.94269
383.36        84.36251
383.81        83.48868
384.26        83.41536
384.71        83.91744
385.15        84.66332
385.60        85.06373
386.05        84.93169
386.50        84.44484
386.95        83.72544
387.40        82.97527
387.85        82.29481
388.29        81.57049
388.74        80.97044
389.19        80.52586
389.64        80.23073
390.09        80.08244
390.54        79.98338
390.98        79.73923
391.43        79.35499
391.88        78.87106
392.33        78.40324
392.78         78.0885
393.23        77.93629
393.67        77.93935
394.12        78.04076
394.57        77.79346
395.02         77.2592
395.47        76.97106
395.91        76.93181
396.36          76.672
396.81         76.2355
397.26        75.92685
397.71         75.7338
398.15         75.5545
398.60        75.47736
399.05        75.21764
399.50        74.88679
399.95        75.20677
400.39        75.93421
400.84        75.66054
401.29        74.49339
401.74        73.85748
402.18          73.836
402.63        73.52161
403.08        72.96193
403.53        72.65631
403.97        72.61751
404.42        72.69588
404.87        72.78814
405.32        72.73992
405.76        72.50275
406.21        72.17835
406.66        71.87236
407.11        71.70177
407.55        71.75335
408.00        72.06654
408.45         72.4955
408.90        72.65723
409.34         72.4339
409.79        71.90747
410.24        71.27556
410.68        70.85828
411.13        70.73445
411.58        70.77452
412.03        70.86797
412.47        70.86711
412.92        70.70205
413.37        70.45252
413.81        70.21097
414.26         70.1769
414.71        70.35233
415.15        70.69381
415.60        71.05455
416.05        71.26635
416.49        71.27435
416.94        71.12025
417.39        70.89716
417.83        70.73354
418.28        70.67773
418.73        70.69658
419.17        70.75688
419.62         70.8082
420.07         70.8219
420.51        70.78939
420.96        70.76769
421.41        70.75793
421.85        70.73336
422.30        70.82847
422.74        70.89897
423.19        70.68008
423.64        70.21548
424.08        69.93563
424.53        69.91152
424.98        69.96526
425.42        70.11729
425.87        70.52821
426.31        71.02817
426.76        71.13258
427.21        70.83508
427.65        70.44158
428.10        70.09375
428.54        69.96361
428.99        70.14028
429.44        70.26259
429.88        70.38158
430.33        71.14736
430.77        72.15091
431.22        72.39239
431.66        71.84939
432.11        71.15047
432.56        70.63244
433.00        70.46561
433.45        70.75753
433.89        71.61503
434.34        72.37943
434.78        72.59061
435.23        71.76596
435.67        69.94641
436.12        70.28234
436.57        70.55996
437.01        71.31364
437.46        71.81136
437.90        72.10429
438.35        70.46169
438.79        71.26648
439.24        71.04295
439.68        71.02428
440.13        71.11662
440.57         71.3758
441.02        71.50433
441.46        71.49194
441.91        72.23347
442.35        73.21281
442.80        72.92608
443.24        71.70068
443.69         71.4591
444.13        72.08051
444.58        73.12058
445.02        72.30996
445.47         72.4615
445.91        72.90843
446.36        73.24519
446.80         73.4171
447.24        73.56257
447.69        73.71128
448.13          73.829
448.58        73.93576
449.02        73.99692
449.47        74.00741
449.91        73.93789
450.36         73.8167
450.80        73.63998
451.25        73.48338
451.69        73.39893
452.13        73.41696
452.58        73.51358
453.02          73.638
453.47        73.71573
453.91        73.70879
454.36        73.64096
454.80        73.53501
455.24        73.32719
455.69        73.02568
456.13        72.84116
456.58        72.83422
457.02        72.10117
457.46        71.75985
457.91        71.77666
458.35        72.20521
458.79        72.12025
459.24         71.5371
459.68         70.8727
460.13        70.36916
460.57         70.1563
461.01        70.32771
461.46         70.6502
461.90        70.95805
462.34        71.65765
462.79        71.39697
463.23        71.51338
463.68        71.52771
464.12        71.23516
464.56        70.65672
465.01        69.91656
465.45        69.18296
465.89        69.03375
466.34        69.34066
466.78        69.44006
467.22        69.34137
467.67        69.02724
468.11        69.37495
468.55        69.38659
468.99        69.27138
469.44        69.06365
469.88        68.78741
470.32        68.44006
470.77        68.10345
471.21        67.92463
471.65        67.91779
472.10        68.04702
472.54        68.22287
472.98        68.27289
473.42        68.15719
473.87        68.04326
474.31        67.88196
474.75        67.45906
475.20        67.01028
475.64        66.72008
476.08        67.54987
476.52        67.58855
476.97        67.04095
477.41        67.00499
477.85        67.12924
478.29        66.35507
478.74        67.27692
479.18        67.51671
479.62        67.29407
480.06        67.27432
480.50        67.26791
480.95          67.285
481.39        67.32372
481.83         66.7642
482.27        66.74457
482.72        66.91268
483.16        66.57288
483.60        66.58034
484.04        66.63046
484.48        67.00448
484.93        67.01288
485.37        67.23914
485.81        66.31008
486.25        66.20103
486.69        68.21687
487.14        69.16795
487.58        67.72529
488.02        67.07242
488.46        65.83965
488.90         66.0288
489.34        67.33971
489.79        68.00181
490.23        66.97704
490.67        66.19458
491.11        65.68538
491.55        65.61596
491.99        65.89484
492.43        65.85288
492.88        65.48515
493.32         65.3819
493.76        65.56969
494.20        65.72191
494.64         65.8092
495.08        65.94993
495.52        66.09818
495.96        66.12044
496.41        66.02351
496.85        65.95966
497.29         65.8469
497.73        65.84113
498.17        65.17432
498.61        65.10349
499.05        65.33997
499.49        65.51595
499.93        65.33152
500.37         65.2567
500.82        65.25846
501.26        65.10459
501.70          65.115
502.14         65.2093
502.58        65.43699
503.02        65.59533
503.46        65.65906
503.90        65.73049
504.34        65.78062
504.78        65.71593
505.22        65.52838
505.66        65.27697
506.10        65.04133
506.54        64.82185
506.98        64.62157
507.42        64.77992
507.86        64.89038
508.30        64.63721
508.74        64.89177
509.18        64.86142
509.62        64.84697
510.06        64.83067
510.50        64.82354
510.94        64.80248
511.38        64.75877
511.82        64.71255
512.26        64.67216
512.70        64.63197
513.14        64.56398
513.58        64.56866
514.02        64.67771
514.46         64.6019
514.90         64.2801
515.34        65.08272
515.78        64.67116
516.22        64.89793
516.66        65.04047
517.10        65.11269
517.54        65.08837
517.98        65.00844
518.42        64.90404
518.86        64.76321
519.30        64.60661
519.74        64.44048
520.18        64.30255
520.62        64.24835
521.06        64.28795
521.50        64.41145
521.93        64.57141
522.37        64.66528
522.81        64.67458
523.25        64.61704
523.69        64.54377
524.13        64.54041
524.57        64.61865
525.01         64.7404
525.45        64.84756
525.89        64.84861
526.32        64.71927
526.76        64.51926
527.20        64.28707
527.64        64.08631
528.08        63.94329
528.52        63.83715
528.96        63.78773
529.40        63.82469
529.83        63.93809
530.27        64.12507
530.71        64.30809
531.15        64.36883
531.59        64.28461
532.03         64.0842
532.46        63.84399
532.90        63.73356
533.34        63.77636
533.78        63.88729
534.22        63.99229
534.66        64.05595
535.09        64.00677
535.53        63.73851
535.97        63.34081
536.41        63.11689
536.85        63.10898
537.28         63.1724
537.72        63.27509
538.16        63.41435
538.60        63.56194
539.04        63.71743
539.47        63.83777
539.91        63.89757
540.35        63.87941
540.79        63.79222
541.22        63.67236
541.66        63.61039
542.10        63.62242
542.54         63.6762
542.97        63.72213
543.41         63.7887
543.85        63.72463
544.29        63.65121
544.72        63.55892
545.16        63.50859
545.60        63.50026
546.04        63.59344
546.47        63.74252
546.91        63.73051
547.35        63.62093
547.79        63.70998
548.22        63.95805
548.66        64.17132
549.10        64.30924
549.53        64.12396
549.97        63.71851
550.41        63.41102
550.84        63.32075
551.28        63.36905
551.72        63.46912
552.15        63.61637
552.59        63.85516
553.03        63.30881
553.46        63.89463
553.90        63.69672
554.34        63.72526
554.77        63.61344
555.21        63.54819
555.65        63.55034
556.08        63.60333
556.52         63.6725
556.96        63.70389
557.39        63.76069
557.83        63.80134
558.27         63.5604
558.70        63.12475
559.14        62.96861
559.57        63.08157
560.01        63.10375
560.45        63.04497
560.88        63.20478
561.32        63.52594
561.75        63.67323
562.19        63.64654
562.63        63.48318
563.06        63.28285
563.50        63.37489
563.93        63.63431
564.37         63.6913
564.80        63.55617
565.24        63.34868
565.68        62.98548
566.11        63.59218
566.55        62.90534
566.98        62.78216
567.42        62.68803
567.85        62.91801
568.29        63.42186
568.72        63.86334
569.16        64.24174
569.60        64.46061
570.03        64.56518
570.47        64.68137
570.90        64.91188
571.34        64.23286
571.77        64.24701
572.21        64.95564
572.64        64.64902
573.08        65.04342
573.51        64.19392
573.95        64.29178
574.38        64.97345
574.82        65.19065
