SpectraSmart Spectrum 2.9.0.0
--------- Device Information -----------
Spectrum Name :  反射率_0
Saving Time :  2024/04/26 23:20:59
Spectro-Module Model Name : SE2030-DUVN
Spectro-Module Serial Number : OS361AC55029948
Wavelength Start : 200
Wavelength End : 1025
Wavelength Unit : Wavelength(nm)
Spectrum Unit : Reflectance(%)
-----------Spectrum Setting ------------
Integration Time : 20ms
Average : 10
Boxcar : 0
Background removal :  enabled
linearity correction :  enabled
SC :  disabled
Intensity correction :  disabled
DWT denoise :  enabled
savitzky-golay :  disabled
FFT :  disabled
Running average :  disabled
Kalman :  disabled
High pass :  disabled
---------------BEGIN--------------------
Wavelength(nm)             Reflectance(%)
200.29               0
200.75        32.04224
201.21        31.14546
201.67        30.55746
202.13         30.3467
202.58        30.36685
203.04        30.95802
203.50        32.09462
203.96        33.20778
204.42        33.87694
204.88        33.99035
205.34        33.65939
205.80        33.47768
206.26        33.46175
206.72        33.20432
207.18        32.70423
207.64        31.78233
208.10        30.42886
208.55        29.12864
209.01        27.14722
209.47         24.5986
209.93        22.83398
210.39        21.86287
210.85        22.62243
211.31        26.50058
211.77        35.20955
212.23         55.1372
212.69        102.3825
213.14        169.3044
213.60        144.5809
214.06        80.15145
214.52        43.50148
214.98        31.43121
215.44        31.14588
215.90        36.03156
216.36        43.08238
216.81        48.19313
217.27        50.19008
217.73        51.40788
218.19         50.2025
218.65        42.91182
219.11        33.25363
219.57        25.12183
220.02        21.75412
220.48        24.73909
220.94         33.9639
221.40        51.29783
221.86        76.89001
222.32        95.50898
222.77        92.42096
223.23         76.8233
223.69        59.94636
224.15         48.5676
224.61        42.07633
225.06        37.71289
225.52        35.09453
225.98        33.81819
226.44        33.45039
226.90        34.10131
227.36        34.85691
227.81        34.14031
228.27        31.95797
228.73        28.87143
229.19        26.21409
229.65        25.49462
230.10         26.7508
230.56        29.48893
231.02        32.46432
231.48        33.68029
231.93        32.78181
232.39        30.69967
232.85        28.79632
233.31        28.88741
233.77        31.08667
234.22        34.72339
234.68        38.52999
235.14        40.61952
235.60        40.45542
236.05        38.57433
236.51        35.80538
236.97        33.93487
237.43         33.8091
237.88        35.04976
238.34        37.14311
238.80        39.40917
239.26        41.67801
239.71        44.65539
240.17        48.32584
240.63        52.44068
241.08        56.70639
241.54        60.26655
242.00        63.68696
242.46        69.10252
242.91        78.54978
243.37         93.1692
243.83        113.5696
244.28        131.3206
244.74         132.851
245.20        117.7545
245.66        97.46111
246.11        81.91596
246.57        72.02171
247.03        65.01382
247.48        59.80847
247.94        55.69963
248.40        53.17516
248.85         52.3352
249.31        52.61846
249.77        53.15464
250.22        53.68666
250.68        54.07875
251.14        54.79018
251.59        56.81635
252.05        60.09078
252.51         63.8908
252.96        65.64215
253.42        63.64526
253.88        58.84065
254.33        52.55849
254.79        48.11162
255.25        47.98096
255.70        51.70933
256.16        58.03222
256.62        63.87022
257.07        64.63644
257.53        61.26689
257.99         56.4195
258.44        52.25766
258.90        50.77748
259.35        51.05798
259.81        52.36306
260.27        53.40434
260.72        52.72564
261.18         50.6187
261.63        47.67899
262.09          45.089
262.55        43.63274
263.00        43.16843
263.46        43.36583
263.91        43.46857
264.37        42.76398
264.83        41.22463
265.28        39.21525
265.74        37.39601
266.19        36.33487
266.65        36.12945
267.11        36.43438
267.56        36.89396
268.02        36.95336
268.47        36.45606
268.93        35.62382
269.38        34.57901
269.84        33.54763
270.30        32.61158
270.75         31.6864
271.21        30.87707
271.66        30.30775
272.12        29.97831
272.57        29.84336
273.03        29.72025
273.48         29.2965
273.94        28.55684
274.39        27.58394
274.85        26.60978
275.31        25.84827
275.76        25.32906
276.22        24.99843
276.67        24.74447
277.13        24.47109
277.58        24.11259
278.04        23.72699
278.49        23.30589
278.95        22.92517
279.40        22.55878
279.86        22.23329
280.31        21.88509
280.77        21.50626
281.22        21.07595
281.68        20.65299
282.13        20.26838
282.59        20.01957
283.04        19.89279
283.50        19.86604
283.95        19.88026
284.41        19.84513
284.86        19.74044
285.32        19.61873
285.77        19.50139
286.22        19.46463
286.68        19.52221
287.13        19.61417
287.59        19.74573
288.04        19.89201
288.50        20.04996
288.95        20.20371
289.41        20.31798
289.86        20.28926
290.32         20.1477
290.77        19.93109
291.22        19.75518
291.68        19.78057
292.13         20.0396
292.59        20.50541
293.04        21.11455
293.50        21.77411
293.95        22.44385
294.40        23.15553
294.86        23.92672
295.31         24.7791
295.77        25.72076
296.22        26.71812
296.68         27.7729
297.13        28.88227
297.58        30.05291
298.04        31.30137
298.49        32.60048
298.95        33.91807
299.40        35.23945
299.85        36.56821
300.31        37.95808
300.76        39.48148
301.21        41.14109
301.67        42.91228
302.12        44.67136
302.58        46.30244
303.03        47.74794
303.48          49.077
303.94         50.3937
304.39        51.80542
304.84        53.36271
305.30         55.0362
305.75         56.7444
306.20        58.43385
306.66        60.09143
307.11        61.71154
307.57        63.30167
308.02        64.78557
308.47        66.17735
308.93         67.4877
309.38        68.76659
309.83         70.1946
310.29        71.79594
310.74        73.50814
311.19        75.16271
311.65        76.45854
312.10        77.30769
312.55        77.79408
313.00        78.13255
313.46        78.66476
313.91        79.45826
314.36        80.44698
314.82        81.45436
315.27        82.19949
315.72        82.60051
316.18        82.78147
316.63        82.88914
317.08         83.1897
317.53        83.74622
317.99        84.44912
318.44        85.19193
318.89        85.77863
319.35        86.14171
319.80        86.35323
320.25        86.45136
320.70        86.49801
321.16        86.53005
321.61        86.56195
322.06        86.62784
322.51        86.79603
322.97        87.06427
323.42        87.42015
323.87        87.84338
324.32        88.31084
324.78        88.77078
325.23        89.28939
325.68        89.72195
326.13        89.85394
326.59        89.65875
327.04        89.21934
327.49        88.78751
327.94        88.79667
328.39        89.33583
328.85        90.25085
329.30        91.34386
329.75        92.03221
330.20        92.13215
330.66        91.78522
331.11        91.27629
331.56        91.00538
332.01        91.11217
332.46        91.46648
332.92        91.91579
333.37         92.3394
333.82         92.6227
334.27        92.85874
334.72        93.07574
335.17        93.29404
335.63        93.52834
336.08        93.80537
336.53        94.16136
336.98        94.70905
337.43        95.45673
337.88        96.34351
338.34        97.26762
338.79        98.15804
339.24        98.90813
339.69        99.53228
340.14        99.95658
340.59         100.081
341.05        99.95142
341.50        99.62234
341.95        99.29812
342.40        99.28809
342.85        99.66973
343.30        100.3567
343.75        101.2224
344.20        102.0384
344.66        102.7083
345.11        103.2739
345.56        103.7094
346.01        103.9872
346.46        104.1332
346.91        104.1639
347.36        104.1581
347.81        104.2598
348.26        104.4962
348.72         104.813
349.17        105.1862
349.62        105.6017
350.07        106.0244
350.52        106.4741
350.97         106.779
351.42        106.6678
351.87        106.1258
352.32        105.2489
352.77        104.3772
353.22        104.0114
353.67        104.2408
354.13        104.9225
354.58        105.7161
355.03        106.0096
355.48         105.644
355.93        104.7986
356.38        103.8402
356.83        103.3247
357.28        103.3583
357.73         103.739
358.18        104.1292
358.63         103.995
359.08        103.2132
359.53        101.9925
359.98        100.6241
360.43        99.51957
360.88        98.78548
361.33        98.29111
361.78        97.89063
362.23         97.3607
362.68        96.64711
363.13        95.85104
363.58        95.05228
364.03        94.35342
364.48         93.7742
364.93        93.24689
365.38        92.74719
365.83        92.25751
366.28        91.75941
366.73         91.2664
367.18        90.72538
367.63        90.04388
368.08        89.22168
368.53        88.30165
368.98        87.38597
369.43        86.63661
369.88        86.09271
370.33        85.70283
370.78        85.40044
371.23        85.07411
371.68        84.67583
372.13        84.22859
372.58        83.73098
373.03        83.18011
373.48        82.58245
373.93        81.93585
374.38        81.25868
374.83        80.59586
375.28        79.96429
375.72        79.33743
376.17         78.7767
376.62        78.26977
377.07        77.82098
377.52        77.45794
377.97        77.11987
378.42        76.71833
378.87        76.24479
379.32        75.69441
379.77        75.22518
380.22        75.07359
380.67        75.24562
381.11        75.68753
381.56        76.04219
382.01        75.79096
382.46        74.86375
382.91        73.49738
383.36        72.11691
383.81        71.30285
384.26         71.1536
384.71        71.46731
385.15        71.99566
385.60        72.30488
386.05        72.24491
386.50        71.94321
386.95        71.46502
387.40        70.91438
387.85        70.36095
388.29        69.73868
388.74        69.19051
389.19        68.74338
389.64        68.40173
390.09        68.15556
390.54        67.98146
390.98        67.81384
391.43        67.66281
391.88        67.52406
392.33        67.38589
392.78        67.21258
393.23              67
393.67        66.78411
394.12         66.6265
394.57        66.36008
395.02        66.04664
395.47        65.96368
395.91        66.08026
396.36        66.04507
396.81        65.85662
397.26        65.71764
397.71        65.59538
398.15         65.3817
398.60        65.16015
399.05        64.76349
399.50        64.32533
399.95        64.37402
400.39        64.78168
400.84        64.67611
401.29        64.07559
401.74        63.73127
402.18         63.6865
402.63        63.47194
403.08        63.15079
403.53        63.01442
403.97        63.06799
404.42        63.22868
404.87        63.38652
405.32        63.33543
405.76        63.03228
406.21        62.66449
406.66        62.32254
407.11           61.98
407.55        61.79981
408.00        62.07203
408.45        62.66853
408.90        63.12489
409.34        63.20701
409.79        62.73297
410.24        61.95445
410.68        61.55355
411.13        61.62071
411.58        61.79444
412.03        61.93278
412.47        61.95325
412.92         61.7852
413.37        61.49807
413.81        61.20131
414.26        61.10733
414.71        61.23172
415.15         61.5296
415.60          61.887
416.05        62.17412
416.49        62.33805
416.94        62.40626
417.39        62.41646
417.83        62.41689
418.28        62.43264
418.73        62.44213
419.17        62.45544
419.62         62.4962
420.07        62.56057
420.51        62.63074
420.96        62.71052
421.41        62.73817
421.85        62.68432
422.30          62.661
422.74        62.61796
423.19        62.50438
423.64        62.33582
424.08        62.29287
424.53        62.38054
424.98        62.47369
425.42         62.5678
425.87        62.82794
426.31        63.16095
426.76        63.08192
427.21        62.70331
427.65        62.69365
428.10        63.03054
428.54        63.24398
428.99         63.3558
429.44        63.38993
429.88        63.45472
430.33        64.01601
430.77        64.77419
431.22        65.06219
431.66        64.82113
432.11        64.22682
432.56        63.59439
433.00        63.66138
433.45        64.46134
433.89        65.19751
434.34        65.33125
434.78        65.86053
435.23        65.08643
435.67        63.91224
436.12        64.40276
436.57        64.58275
437.01        65.00785
437.46        65.15448
437.90        65.00995
438.35        64.87038
438.79        64.81863
439.24        64.89685
439.68        65.08243
440.13        65.46244
440.57        65.98582
441.02        66.11539
441.46        65.91086
441.91         66.4828
442.35         67.4377
442.80        67.17394
443.24        65.98067
443.69        65.96927
444.13        67.03774
444.58        67.46241
445.02        67.18567
445.47        67.18517
445.91        67.50129
446.36        67.73619
446.80        67.86254
447.24        68.06341
447.69        68.35328
448.13         68.2986
448.58        68.57098
449.02        68.69759
449.47        68.84712
449.91        68.87762
450.36        68.80952
450.80        68.67995
451.25        68.55857
451.69        68.49438
452.13        68.51862
452.58        68.60874
453.02        68.72763
453.47        68.82023
453.91        68.85809
454.36        68.86904
454.80        68.85417
455.24        68.72453
455.69        68.48248
456.13        68.30818
456.58         68.3093
457.02        67.73747
457.46        67.68199
457.91        67.89394
458.35         68.3914
458.79        68.36036
459.24        67.80521
459.68        67.03683
460.13        66.35545
460.57        66.15681
461.01        66.36353
461.46        66.87308
461.90        67.35849
462.34        68.21714
462.79        67.72903
463.23        67.77695
463.68        67.82871
464.12        67.76066
464.56        67.45534
465.01        66.67284
465.45        65.69131
465.89        65.38797
466.34        65.67554
466.78        66.17438
467.22        66.41601
467.67        66.02242
468.11         65.8645
468.55        65.86694
468.99         66.2405
469.44        66.29626
469.88        66.03553
470.32        65.87534
470.77        65.85283
471.21        65.83331
471.65        65.80652
472.10        65.81924
472.54        65.84153
472.98        65.78325
473.42         65.6207
473.87        65.54469
474.31        65.49254
474.75        65.06759
475.20        64.47117
475.64        64.52551
476.08        65.13593
476.52        65.25295
476.97        64.78746
477.41        64.69276
477.85        64.87748
478.29        64.14437
478.74        64.92482
479.18        65.10689
479.62        65.26322
480.06        65.35452
480.50        65.31187
480.95        65.26965
481.39         65.2508
481.83         64.8688
482.27        64.61901
482.72        65.08875
483.16        64.57576
483.60        64.67551
484.04        64.83662
484.48        65.11881
484.93        65.24893
485.37         65.2972
485.81        64.44572
486.25        63.98175
486.69        64.31197
487.14        65.12709
487.58        64.79153
488.02        65.13046
488.46        64.25124
488.90        64.31064
489.34         65.7175
489.79        66.47221
490.23         65.7688
490.67        65.10659
491.11        64.52293
491.55        64.41529
491.99        64.70963
492.43        64.67858
492.88        64.31381
493.32        64.19846
493.76        64.34218
494.20        64.44096
494.64        64.47712
495.08        64.49251
495.52        64.48841
495.96         64.5937
496.41        64.74618
496.85        64.65291
497.29        64.30503
497.73        64.31052
498.17        63.89852
498.61        64.05701
499.05        64.42436
499.49        64.45762
499.93        63.99514
500.37        64.09473
500.82        64.62291
501.26        64.72678
501.70        64.43192
502.14        64.43294
502.58        64.72656
503.02        64.85725
503.46        64.81076
503.90         64.8136
504.34        64.85184
504.78        64.81197
505.22        64.68414
505.66        64.51524
506.10        64.37704
506.54        64.28807
506.98        64.21404
507.42        64.52951
507.86        64.45403
508.30        64.33575
508.74        64.44672
509.18        64.36109
509.62        64.25136
510.06        64.18239
510.50        64.17914
510.94        64.20127
511.38        64.24217
511.82        64.30492
512.26        64.38048
512.70        64.47321
513.14        64.55504
513.58        64.57742
514.02        64.53567
514.46        64.44454
514.90        64.35129
515.34        64.33437
515.78        64.40825
516.22        64.54319
516.66        64.69386
517.10        64.78532
517.54         64.7939
517.98        64.74786
518.42        64.66183
518.86        64.54407
519.30        64.40872
519.74        64.29948
520.18        64.24332
520.62        64.17142
521.06        64.14368
521.50        64.40186
521.93         64.8428
522.37        65.04955
522.81         64.9789
523.25        64.81314
523.69        64.65853
524.13        64.62294
524.57        64.73273
525.01        64.93436
525.45        65.13047
525.89        65.16638
526.32        65.00653
526.76        64.73959
527.20        64.41836
527.64        64.15105
528.08         63.9845
528.52        63.81651
528.96        63.70356
529.40        63.90115
529.83        64.31786
530.27        64.55311
530.71        64.56431
531.15        64.61916
531.59        64.70689
532.03         64.6302
532.46         64.4236
532.90        64.29498
533.34         64.2644
533.78        64.24559
534.22        64.21177
534.66        64.19902
535.09        64.15157
535.53        63.94459
535.97        63.63618
536.41        63.47624
536.85        63.49245
537.28        63.55899
537.72        63.65368
538.16        63.78968
538.60        63.94467
539.04        64.10667
539.47        64.23917
539.91        64.33083
540.35        64.36161
540.79        64.33574
541.22        64.26659
541.66        64.20082
542.10        64.14574
542.54        64.09679
542.97        64.03957
543.41           63.98
543.85        63.91154
544.29        63.84777
544.72        63.78848
545.16         63.7695
545.60        63.78641
546.04        63.83622
546.47        63.91656
546.91        64.04028
547.35        64.19861
547.79        64.31438
548.22        64.37587
548.66        64.51939
549.10        64.72851
549.53        64.60176
549.97        64.23314
550.41        63.97164
550.84         63.9271
551.28        64.03742
551.72        64.19363
552.15        64.33036
552.59        64.48708
553.03        63.91144
553.46        64.26513
553.90        64.14977
554.34        64.05516
554.77        63.97526
555.21        63.95697
555.65        64.02991
556.08        64.16647
556.52        64.32147
556.96        64.43325
557.39         64.5572
557.83        64.62732
558.27        64.38389
558.70        63.80827
559.14        63.59263
559.57         63.6991
560.01        63.72808
560.45        63.68372
560.88        63.84929
561.32         64.1854
561.75        64.41964
562.19        64.51282
562.63        64.42059
563.06        64.22722
563.50         64.1977
563.93        64.27892
564.37        64.40531
564.80        64.52351
565.24         64.3233
565.68        63.74961
566.11        64.31328
566.55        63.72711
566.98        63.66184
567.42         63.5541
567.85        63.73475
568.29        64.15356
568.72        64.52192
569.16        64.86673
569.60        64.93111
570.03        64.89046
570.47         64.9476
570.90        65.29198
571.34        64.14955
571.77        64.61123
572.21        65.10867
572.64        64.73315
573.08        65.14348
573.51        64.46712
573.95        64.37387
574.38        64.59397
574.82        64.82896
