SpectraSmart Spectrum 2.9.0.0
--------- Device Information -----------
Spectrum Name :  反射率_0
Saving Time :  2024/04/26 23:18:45
Spectro-Module Model Name : SE2030-DUVN
Spectro-Module Serial Number : OS361AC55029948
Wavelength Start : 200
Wavelength End : 1025
Wavelength Unit : Wavelength(nm)
Spectrum Unit : Reflectance(%)
-----------Spectrum Setting ------------
Integration Time : 20ms
Average : 10
Boxcar : 0
Background removal :  enabled
linearity correction :  enabled
SC :  disabled
Intensity correction :  disabled
DWT denoise :  enabled
savitzky-golay :  disabled
FFT :  disabled
Running average :  disabled
Kalman :  disabled
High pass :  disabled
---------------BEGIN--------------------
Wavelength(nm)             Reflectance(%)
200.29               0
200.75        24.01593
201.21        31.24781
201.67        38.29648
202.13         41.4367
202.58        40.30797
203.04        36.20251
203.50        30.13175
203.96        25.67708
204.42         25.6616
204.88        29.43553
205.34        35.10548
205.80        38.80626
206.26        39.05402
206.72        37.13451
207.18        34.71819
207.64        33.07265
208.10        32.30439
208.55        32.31903
209.01        31.92144
209.47        29.35319
209.93        25.60673
210.39        22.71825
210.85        21.87613
211.31        23.83884
211.77        29.57467
212.23         43.1792
212.69        77.92365
213.14         138.899
213.60        140.9217
214.06        101.3535
214.52        73.03814
214.98          59.377
215.44        52.40499
215.90        46.97196
216.36        43.09451
216.81        41.67618
217.27        43.31896
217.73        49.75286
218.19        59.37197
218.65        61.68072
219.11         53.9805
219.57        43.30277
220.02        36.93761
220.48        38.87316
220.94        48.77745
221.40        67.76737
221.86        95.06999
222.32        112.3225
222.77        104.1205
223.23        83.14503
223.69        62.73622
224.15        50.14901
224.61        44.12298
225.06        41.16928
225.52        40.44409
225.98        41.21384
226.44        42.97985
226.90        45.93212
227.36        49.05536
227.81        50.37928
228.27        49.67268
228.73        47.46743
229.19          45.182
229.65        44.53948
230.10        45.62936
230.56        47.90765
231.02        50.22263
231.48         50.7518
231.93         49.2485
232.39        46.81962
232.85        44.58704
233.31        44.01425
233.77        45.22955
234.22        47.64728
234.68        50.55261
235.14        52.96956
235.60        54.54591
236.05        55.64618
236.51        56.23322
236.97        56.27354
237.43        55.85574
237.88        54.94384
238.34        54.00244
238.80         54.1595
239.26        55.85552
239.71        59.52639
240.17        64.67529
240.63        69.62666
241.08        73.14679
241.54        74.69388
242.00        75.32218
242.46        77.84888
242.91        84.53461
243.37        95.80432
243.83        112.5012
244.28        128.5658
244.74        132.7993
245.20        124.1833
245.66        110.3557
246.11        98.49564
246.57        89.80592
247.03        82.15552
247.48        75.02534
247.94        69.09612
248.40        65.47264
248.85        63.86998
249.31        63.46305
249.77        62.87923
250.22        61.59702
250.68        59.34033
251.14        56.67311
251.59        55.80964
252.05         58.1086
252.51        62.91634
252.96        66.70179
253.42        66.70662
253.88        63.66555
254.33        58.85454
254.79         56.2295
255.25        59.09853
255.70        66.85935
256.16        77.89133
256.62        87.42998
257.07        88.34192
257.53         82.4482
257.99        74.33286
258.44         67.6599
258.90        65.52705
259.35        66.59013
259.81        69.52654
260.27         72.4245
260.72        73.01872
261.18        71.53812
261.63        68.80426
262.09         66.3475
262.55        65.15975
263.00        65.08321
263.46        65.72695
263.91        66.15858
264.37        65.60683
264.83        64.00418
265.28        61.75801
265.74        59.67045
266.19        58.35518
266.65        57.95692
267.11         58.0913
267.56        58.33651
268.02        58.05488
268.47        57.08158
268.93        55.69446
269.38        54.11403
269.84        52.73075
270.30        51.64248
270.75        50.70267
271.21        49.90594
271.66        49.18498
272.12        48.49911
272.57        47.84201
273.03        47.13275
273.48        46.21224
273.94          45.131
274.39        43.91948
274.85        42.74923
275.31        41.70012
275.76        40.77981
276.22        40.00712
276.67        39.34682
277.13         38.8569
277.58        38.45916
278.04        38.15249
278.49        37.80629
278.95        37.36234
279.40         36.7514
279.86        36.08424
280.31        35.34038
280.77        34.61607
281.22        33.90474
281.68        33.26517
282.13        32.71115
282.59        32.36017
283.04        32.17307
283.50        32.12948
283.95        32.14353
284.41        32.09432
284.86        31.94205
285.32        31.75325
285.77        31.53355
286.22        31.36333
286.68        31.26392
287.13        31.16906
287.59        31.11448
288.04        31.10672
288.50        31.15739
288.95        31.22758
289.41        31.27102
289.86         31.1403
290.32         30.8699
290.77        30.50739
291.22        30.17778
291.68        30.04892
292.13         30.1547
292.59        30.46871
293.04        30.95466
293.50        31.57027
293.95        32.27872
294.40        33.10212
294.86        34.00782
295.31        34.92832
295.77        35.86493
296.22        36.81707
296.68        37.84614
297.13        39.03978
297.58        40.41752
298.04        41.93844
298.49        43.54194
298.95        45.15254
299.40        46.72001
299.85        48.26396
300.31        49.77274
300.76        51.21002
301.21        52.59387
301.67         53.9587
302.12        55.33223
302.58        56.84232
303.03        58.47068
303.48        60.21552
303.94        62.04928
304.39        63.86143
304.84        65.65186
305.30        67.45119
305.75        69.24162
306.20        71.08572
306.66        72.99371
307.11        74.89562
307.57        76.75144
308.02        78.40275
308.47        79.85412
308.93        81.16068
309.38        82.39999
309.83        83.80417
310.29        85.41992
310.74        87.17262
311.19        88.90663
311.65        90.33423
312.10        91.36451
312.55         92.0826
313.00        92.67198
313.46        93.42847
313.91         94.4031
314.36        95.52814
314.82        96.66176
315.27        97.59082
315.72        98.22919
316.18        98.67137
316.63         98.9803
317.08        99.30212
317.53        99.69051
317.99        100.0958
318.44         100.505
318.89          100.87
319.35        101.1725
319.80        101.4392
320.25        101.6921
320.70        101.9612
321.16        102.2534
321.61        102.5999
322.06        102.9521
322.51        103.2432
322.97         103.444
323.42        103.5652
323.87        103.7209
324.32        104.1211
324.78        104.7622
325.23         105.665
325.68         106.516
326.13        106.8054
326.59        106.4315
327.04        105.5773
327.49        104.6819
327.94          104.47
328.39        105.1096
328.85         106.366
329.30        107.9129
329.75         108.895
330.20        109.0375
330.66        108.5503
331.11        107.8698
331.56        107.6291
332.01        108.0217
332.46        108.8291
332.92        109.7325
333.37        110.3601
333.82        110.5161
334.27        110.3913
334.72        110.1562
335.17        110.0596
335.63        110.1973
336.08         110.544
336.53        111.0876
336.98        111.8635
337.43        112.8377
337.88        113.9675
338.34        115.1254
338.79        116.2108
339.24        117.0922
339.69        117.7744
340.14        118.1781
340.59        118.2141
341.05        117.9489
341.50        117.4491
341.95        116.9642
342.40        116.8644
342.85        117.2438
343.30        118.0066
343.75        118.9964
344.20        119.9292
344.66        120.6863
345.11        121.3149
345.56        121.7968
346.01        122.1222
346.46         122.318
346.91         122.388
347.36        122.3931
347.81        122.4548
348.26        122.5989
348.72         122.784
349.17         123.014
349.62          123.32
350.07        123.6824
350.52        124.1188
350.97        124.4313
351.42        124.3023
351.87        123.7103
352.32        122.7643
352.77         121.844
353.22        121.5106
353.67        121.8534
354.13        122.6915
354.58        123.6309
355.03        123.9649
355.48        123.5106
355.93        122.4872
356.38        121.2927
356.83        120.5274
357.28        120.3214
357.73        120.4607
358.18        120.6498
358.63        120.4244
359.08        119.6651
359.53        118.5573
359.98        117.3082
360.43        116.1966
360.88        115.3022
361.33        114.5333
361.78        113.8152
362.23        113.0461
362.68        112.2071
363.13        111.3615
363.58        110.5487
364.03        109.8061
364.48        109.1332
364.93        108.4882
365.38        107.8582
365.83        107.2423
366.28        106.6293
366.73         106.019
367.18        105.3671
367.63        104.5991
368.08        103.7141
368.53        102.7551
368.98        101.7957
369.43        100.9475
369.88         100.247
370.33         99.6666
370.78        99.18702
371.23        98.77641
371.68        98.40534
372.13        98.06117
372.58        97.70784
373.03        97.29092
373.48        96.78151
373.93        96.17377
374.38        95.45878
374.83        94.64165
375.28        93.74814
375.72        92.78722
376.17        91.86342
376.62        91.01057
377.07        90.26421
377.52        89.64899
377.97        89.16143
378.42         88.8003
378.87        88.54584
379.32        88.33749
379.77        88.21466
380.22        88.24121
380.67        88.38463
381.11        88.64666
381.56        88.71268
382.01        88.17319
382.46        87.01752
382.91        85.45863
383.36        83.96147
383.81        83.15883
384.26         83.1396
384.71        83.69111
385.15        84.47218
385.60        84.87731
386.05        84.72289
386.50        84.19168
386.95        83.44651
387.40        82.75108
387.85        82.20897
388.29        81.67829
388.74        81.27073
389.19        80.94457
389.64        80.67793
390.09        80.48313
390.54        80.30477
390.98        80.02007
391.43        79.65643
391.88         79.2374
392.33         78.8268
392.78        78.51256
393.23        78.30647
393.67        78.15516
394.12        78.08542
394.57        77.94382
395.02        77.72626
395.47        77.53112
395.91        77.37455
396.36        77.17401
396.81        76.96292
397.26        76.79263
397.71        76.64367
398.15        76.46024
398.60        76.32365
399.05        76.09237
399.50        75.82584
399.95        75.83544
400.39        76.03316
400.84        75.82211
401.29        75.25145
401.74        74.89295
402.18        74.79224
402.63        74.58467
403.08        74.31338
403.53        74.18462
403.97        74.18977
404.42        74.26122
404.87        74.32442
405.32        74.21926
405.76        73.90511
406.21        73.60253
406.66        73.35153
407.11        72.91444
407.55        72.49612
408.00        72.73882
408.45        73.50257
408.90         73.8981
409.34        73.73951
409.79        73.31048
410.24        72.80912
410.68        72.51575
411.13        72.50506
411.58        72.61121
412.03        72.71308
412.47        72.68796
412.92        72.47086
413.37         72.1349
413.81        71.79515
414.26        71.68539
414.71        71.81635
415.15        72.14702
415.60        72.51865
416.05        72.73869
416.49        72.74754
416.94        72.59343
417.39        72.39423
417.83        72.31438
418.28        72.40588
418.73        72.62067
419.17        72.87476
419.62        73.03786
420.07         73.0529
420.51        72.92867
420.96        72.78401
421.41        72.66682
421.85         72.5667
422.30         72.7487
422.74        72.98228
423.19        72.56573
423.64        71.66477
424.08        71.44951
424.53        71.95942
424.98        72.21026
425.42        72.27106
425.87        72.74959
426.31        73.47983
426.76         73.4494
427.21        72.77408
427.65        72.47097
428.10        72.59586
428.54         72.6135
428.99        72.58893
429.44        72.56078
429.88        72.62356
430.33        73.30269
430.77        74.21014
431.22        74.45074
431.66        74.00248
432.11        73.31622
432.56        72.71413
433.00        72.84396
433.45        73.79794
433.89        74.63343
434.34        74.61707
434.78        75.99281
435.23        74.70129
435.67        73.04126
436.12        73.50854
436.57        73.53888
437.01        73.97192
437.46        74.05209
437.90        73.79538
438.35        73.60677
438.79        73.61737
439.24        73.72652
439.68        73.91711
440.13        74.33875
440.57        74.92072
441.02        75.01157
441.46        74.78323
441.91        75.28394
442.35        76.17043
442.80        76.00329
443.24         74.9933
443.69        74.89693
444.13        75.68027
444.58         76.0591
445.02        75.99631
445.47        76.16605
445.91        76.62835
446.36        76.93054
446.80        77.05825
447.24        77.12057
447.69        77.13979
448.13        77.10294
448.58          77.058
449.02        77.03423
449.47        77.05055
449.91        77.04923
450.36         77.0535
450.80         77.0787
451.25        77.14033
451.69        77.17925
452.13        77.20294
452.58        77.21062
453.02        77.20862
453.47        77.21764
453.91        77.22807
454.36         77.2525
454.80        77.27473
455.24        77.10246
455.69        76.71931
456.13        76.47211
456.58        76.53871
457.02        75.55833
457.46        75.75788
457.91        75.95807
458.35        76.48238
458.79        76.44987
459.24        75.88564
459.68        75.07503
460.13        74.30581
460.57         73.9988
461.01         74.3139
461.46        74.22615
461.90        75.00159
462.34        75.55809
462.79        75.48536
463.23        75.64148
463.68        75.74074
464.12         75.5582
464.56        75.07887
465.01        74.52762
465.45        73.99121
465.89         73.6749
466.34        73.56585
466.78        73.72066
467.22         74.0985
467.67        73.61353
468.11        73.65857
468.55         73.5938
468.99         73.7767
469.44        73.72962
469.88        73.45984
470.32        73.20948
470.77        73.03187
471.21        72.93685
471.65        72.92645
472.10        72.99879
472.54        73.10072
472.98        73.11488
473.42        73.00529
473.87        72.96614
474.31        72.93053
474.75        72.52544
475.20         71.9419
475.64        71.93933
476.08        72.48402
476.52        72.55917
476.97        72.05163
477.41        72.03616
477.85        72.76286
478.29        71.30981
478.74        72.20033
479.18        72.63398
479.62        72.86272
480.06        72.73264
480.50        72.68973
480.95        72.56329
481.39        72.36951
481.83        71.98247
482.27        71.64795
482.72        72.38141
483.16         71.8494
483.60        72.01706
484.04        72.18543
484.48        72.38933
484.93        72.32207
485.37        72.42293
485.81        71.61932
486.25        70.79568
486.69        71.89395
487.14        73.01702
487.58         72.1993
488.02        72.47683
488.46        71.11688
488.90        71.24673
489.34        72.88129
489.79        73.29121
490.23        72.57898
490.67        71.82414
491.11        71.35051
491.55        71.31299
491.99        71.61877
492.43         71.5952
492.88        71.21647
493.32        71.04967
493.76        71.13885
494.20        71.20708
494.64        71.22906
495.08        71.34441
495.52        71.49932
495.96        71.42493
496.41         71.1776
496.85        71.22818
497.29        71.40208
497.73        71.43719
498.17        70.52309
498.61        70.37915
499.05        70.72767
499.49        71.03443
499.93        70.96621
500.37        70.97975
500.82        71.00545
501.26        71.05089
501.70        71.09691
502.14        71.03296
502.58        70.91564
503.02        70.92232
503.46        71.06909
503.90        71.28642
504.34        71.47809
504.78        71.49951
505.22        71.31526
505.66         70.9938
506.10        70.67106
506.54         70.4606
506.98         70.3856
507.42        70.67424
507.86        70.94972
508.30         70.7987
508.74        70.98153
509.18        70.83186
509.62        70.67452
510.06        70.58745
510.50        70.60726
510.94        70.68237
511.38         70.7726
511.82        70.85104
512.26        70.91663
512.70        70.94205
513.14        70.91162
513.58        70.97086
514.02        71.15841
514.46        70.79641
514.90        70.98204
515.34        71.05649
515.78        71.04688
516.22        71.14853
516.66        71.22646
517.10         71.1878
517.54        71.01008
517.98        70.75329
518.42        70.48787
518.86        70.31004
519.30        70.25178
519.74        70.31282
520.18        70.41314
520.62        70.55791
521.06        70.70824
521.50        70.87673
521.93        71.03367
522.37        71.10976
522.81         71.1018
523.25        71.01435
523.69        70.90175
524.13        70.85756
524.57        70.89635
525.01        70.98589
525.45         71.0676
525.89         71.0432
526.32        70.88736
526.76        70.66453
527.20        70.41505
527.64        70.20534
528.08        70.06329
528.52        69.96749
528.96        69.93626
529.40        69.99866
529.83         70.1413
530.27        70.35587
530.71        70.56681
531.15        70.65992
531.59         70.6113
532.03        70.45111
532.46        70.23394
532.90        70.10015
533.34        70.07258
533.78        70.07442
534.22        70.07666
534.66        70.12044
535.09        70.13899
535.53         69.9864
535.97        69.70268
536.41        69.52998
536.85        69.49422
537.28        69.46842
537.72        69.45761
538.16        69.52431
538.60        69.66041
539.04         69.8445
539.47        70.01936
539.91        70.14294
540.35        70.18526
540.79         70.1588
541.22          70.092
541.66        70.05698
542.10         70.0619
542.54        70.08838
542.97        70.09798
543.41        70.06281
543.85        69.97095
544.29        69.85448
544.72         69.7298
545.16        69.65972
545.60         69.6447
546.04        69.67303
546.47        69.75142
546.91        69.88182
547.35        70.04617
547.79        70.23923
548.22        70.40896
548.66        70.45872
549.10        70.45286
549.53        70.38447
549.97        70.29668
550.41        70.09665
550.84        69.86921
551.28        69.85186
551.72        69.99218
552.15        70.05874
552.59        70.14782
553.03         69.8456
553.46        70.17931
553.90         70.1589
554.34        70.06054
554.77        70.03213
555.21         70.1367
555.65        69.84433
556.08        70.09415
556.52        70.07143
556.96        70.04955
557.39        70.12267
557.83        70.22491
558.27        70.06744
558.70        69.73188
559.14        69.31408
559.57        69.47118
560.01        69.52484
560.45        69.61425
560.88        69.72021
561.32         69.8503
561.75        69.94314
562.19         70.0042
562.63         70.0282
563.06        70.00711
563.50        69.95695
563.93        69.85091
564.37        69.82166
564.80        69.91065
565.24        69.93213
565.68        69.70597
566.11        70.48325
566.55        69.72598
566.98         69.4868
567.42         69.2214
567.85        69.33709
568.29        69.79153
568.72        70.19553
569.16        70.56506
569.60        70.65829
570.03        70.66634
570.47        70.75382
570.90        71.13737
571.34        69.90353
571.77        70.52648
572.21         70.8005
572.64        70.67711
573.08        70.62569
573.51        70.45234
573.95        70.34544
574.38        70.51445
574.82        70.76939
