SpectraSmart Spectrum 2.9.0.0
--------- Device Information -----------
Spectrum Name :  反射率_0
Saving Time :  2024/04/26 23:19:20
Spectro-Module Model Name : SE2030-DUVN
Spectro-Module Serial Number : OS361AC55029948
Wavelength Start : 200
Wavelength End : 1025
Wavelength Unit : Wavelength(nm)
Spectrum Unit : Reflectance(%)
-----------Spectrum Setting ------------
Integration Time : 20ms
Average : 10
Boxcar : 0
Background removal :  enabled
linearity correction :  enabled
SC :  disabled
Intensity correction :  disabled
DWT denoise :  enabled
savitzky-golay :  disabled
FFT :  disabled
Running average :  disabled
Kalman :  disabled
High pass :  disabled
---------------BEGIN--------------------
Wavelength(nm)             Reflectance(%)
200.29               0
200.75        48.41083
201.21        47.45359
201.67        45.84575
202.13        44.14346
202.58        42.27158
203.04        40.09504
203.50        37.87761
203.96        36.69512
204.42        37.40151
204.88         40.1497
205.34        43.74939
205.80        45.65547
206.26        45.13274
206.72        42.95065
207.18        40.53139
207.64        39.07358
208.10        38.63366
208.55        39.18676
209.01        40.00927
209.47        39.69004
209.93        38.25906
210.39        37.09741
210.85        37.07307
211.31        39.06084
211.77        44.06548
212.23        55.21514
212.69        84.07606
213.14        139.3979
213.60        148.4896
214.06        118.4314
214.52        93.62998
214.98        78.52287
215.44        67.16232
215.90        55.44667
216.36        44.77698
216.81        38.32476
217.27        37.38129
217.73        42.58668
218.19        52.61677
218.65        57.31377
219.11        52.45269
219.57        44.27329
220.02        39.22702
220.48         41.0907
220.94        49.71703
221.40        65.89539
221.86        88.88087
222.32        103.1358
222.77         95.7992
223.23        77.88661
223.69        60.66194
224.15        50.19777
224.61        45.30076
225.06        42.84324
225.52        42.25245
225.98        42.99503
226.44        44.61102
226.90        47.30399
227.36        49.78331
227.81        49.72437
228.27        47.12349
228.73        42.90065
229.19        39.07873
229.65        38.00639
230.10        39.69612
230.56        43.22955
231.02        46.98566
231.48        48.35924
231.93        46.87256
232.39        43.94194
232.85        40.83101
233.31        39.13005
233.77        39.10653
234.22        40.20584
234.68        41.95991
235.14        43.84377
235.60        45.61819
236.05        47.51815
236.51        49.47599
236.97        51.18283
237.43        52.51145
237.88         53.5172
238.34        54.23837
238.80        55.19722
239.26        56.75503
239.71        59.21169
240.17        62.98883
240.63        69.16449
241.08        77.99812
241.54        88.62869
242.00        100.0235
242.46        111.1788
242.91        123.0599
243.37        135.9648
243.83        149.0544
244.28        155.2372
244.74        145.3181
245.20        121.7877
245.66         99.2425
246.11        87.58453
246.57        85.93285
247.03        91.37971
247.48        97.63411
247.94        94.24679
248.40        83.10138
248.85        70.73408
249.31        61.64511
249.77        57.88701
250.22        58.66718
250.68         62.8443
251.14        70.29705
251.59        78.36264
252.05        84.08794
252.51        88.16025
252.96        89.16518
253.42        86.96359
253.88        82.66616
254.33         76.6031
254.79        72.78451
255.25        74.45679
255.70         80.8868
256.16        90.61859
256.62        98.83504
257.07        98.42754
257.53        91.53912
257.99        82.79791
258.44        75.74517
258.90        73.43575
259.35        74.39281
259.81         77.2498
260.27        80.10516
260.72        80.73475
261.18        79.33087
261.63        76.60828
262.09        74.00366
262.55        72.34346
263.00         71.4993
263.46        71.22135
263.91          70.705
264.37        69.38486
264.83        67.24371
265.28        64.64314
265.74        62.32631
266.19        60.80954
266.65        60.21545
267.11        60.16982
267.56        60.30587
268.02        60.07714
268.47        59.30478
268.93        58.19698
269.38        56.84268
269.84        55.44823
270.30        54.08092
270.75        52.67419
271.21        51.32971
271.66        50.13257
272.12        49.10838
272.57        48.23014
273.03        47.42507
273.48        46.54186
273.94        45.60436
274.39        44.60592
274.85        43.68207
275.31         42.8618
275.76        42.12065
276.22        41.48141
276.67        40.84262
277.13        40.17915
277.58        39.42843
278.04         38.6423
278.49        37.83187
278.95        37.14777
279.40        36.55363
279.86        36.08672
280.31        35.60474
280.77        35.02594
281.22         34.3059
281.68        33.56581
282.13        32.88498
282.59        32.46913
283.04        32.30222
283.50        32.33615
283.95        32.45351
284.41        32.48799
284.86        32.38578
285.32        32.22545
285.77        32.04961
286.22        31.99088
286.68        32.07243
287.13        32.20428
287.59        32.35658
288.04        32.43723
288.50        32.44486
288.95        32.37619
289.41        32.26856
289.86        32.09364
290.32        31.91218
290.77        31.74023
291.22        31.63708
291.68        31.66683
292.13         31.8533
292.59        32.22216
293.04        32.80548
293.50        33.66648
293.95        34.78361
294.40        36.11812
294.86        37.59297
295.31        39.07684
295.77        40.53358
296.22        41.97207
296.68        43.40665
297.13        44.85225
297.58        46.33814
298.04        47.86064
298.49        49.46377
298.95        51.23996
299.40        53.17849
299.85         55.2534
300.31        57.37754
300.76        59.38567
301.21        61.25351
301.67        63.04435
302.12        64.80086
302.58        66.68957
303.03        68.69279
303.48        70.79135
303.94        72.94861
304.39        75.03453
304.84        77.05766
305.30        79.06839
305.75        81.06602
306.20        83.14526
306.66        85.32892
307.11        87.53448
307.57        89.71133
308.02        91.66563
308.47        93.39413
308.93        94.95216
309.38        96.42828
309.83        98.09069
310.29        99.98933
310.74        102.0378
311.19         104.026
311.65        105.5796
312.10        106.5894
312.55        107.1628
313.00        107.5792
313.46        108.2775
313.91        109.3339
314.36        110.6549
314.82        111.9834
315.27        112.9174
315.72        113.3386
316.18        113.4154
316.63        113.3654
317.08        113.5777
317.53        114.1526
317.99        114.9541
318.44        115.8216
318.89        116.4622
319.35        116.7855
319.80        116.8941
320.25        116.9072
320.70        117.0115
321.16        117.2653
321.61        117.6552
322.06        118.0919
322.51        118.4478
322.97        118.6694
323.42        118.7931
323.87        118.9528
324.32        119.3874
324.78        120.0887
325.23        121.0658
325.68         121.963
326.13        122.2076
326.59         121.694
327.04        120.6489
327.49        119.5489
327.94        119.1838
328.39         119.746
328.85        120.9368
329.30        122.4676
329.75        123.5985
330.20        124.0646
330.66        123.7153
331.11        123.4451
331.56        123.1674
332.01        123.2167
332.46        123.4185
332.92        123.6724
333.37        124.0046
333.82        124.3162
334.27        124.6987
334.72        125.0975
335.17        125.3776
335.63        125.5178
336.08        125.6109
336.53        125.7925
336.98        126.3511
337.43        127.3338
337.88        128.6087
338.34        129.9656
338.79        131.1899
339.24        132.0991
339.69        132.7511
340.14        133.0893
340.59        133.0497
341.05        132.7154
341.50        132.1304
341.95        131.5618
342.40        131.4141
342.85        131.7837
343.30        132.5706
343.75         133.578
344.20        134.4524
344.66        135.0647
345.11        135.4876
345.56        135.7612
346.01        135.9661
346.46        136.1528
346.91        136.3019
347.36         136.422
347.81        136.5538
348.26        136.6975
348.72        136.8242
349.17          136.98
349.62        137.2702
350.07        137.6817
350.52         138.201
350.97        138.5523
351.42        138.2992
351.87         137.407
352.32        136.0432
352.77        134.6862
353.22        134.0336
353.67        134.2109
354.13        135.0022
354.58        135.9646
355.03        136.3042
355.48        135.8035
355.93        134.6946
356.38        133.4097
356.83        132.5984
357.28        132.3951
357.73         132.567
358.18        132.7446
358.63        132.3531
359.08        131.2628
359.53        129.7001
359.98        127.9984
360.43        126.6225
360.88        125.6789
361.33        125.0139
361.78        124.4125
362.23        123.5468
362.68        122.3498
363.13        120.9644
363.58        119.5568
364.03        118.3589
364.48        117.4216
364.93        116.6417
365.38        115.9377
365.83        115.1962
366.28        114.3773
366.73        113.5337
367.18        112.6491
367.63        111.6862
368.08        110.6536
368.53        109.5582
368.98        108.4901
369.43        107.5952
369.88        106.9022
370.33        106.3767
370.78        105.9083
371.23        105.3156
371.68        104.5471
372.13        103.6376
372.58        102.7023
373.03        101.9254
373.48        101.3374
373.93        100.8753
374.38        100.3829
374.83        99.62253
375.28        98.56114
375.72        97.27849
376.17        96.02148
376.62        95.03573
377.07        94.39027
377.52        94.02312
377.97        93.79166
378.42        93.47579
378.87        93.01323
379.32        92.44168
379.77        91.91203
380.22         91.6441
380.67        91.64647
381.11        91.85851
381.56        91.95747
382.01        91.52194
382.46        90.51176
382.91        89.14842
383.36        87.79904
383.81        86.95307
384.26        86.68652
384.71        86.81636
385.15        87.15073
385.60        87.34682
386.05        87.27547
386.50        87.03123
386.95        86.60081
387.40        85.97119
387.85        85.20174
388.29        84.27303
388.74        83.43362
389.19        82.81364
389.64        82.43063
390.09        82.23112
390.54        82.15308
390.98        82.00395
391.43        81.76453
391.88         81.5764
392.33        81.45459
392.78        80.86874
393.23        80.69339
393.67        80.24624
394.12        79.89326
394.57        79.52785
395.02        79.20699
395.47        79.11835
395.91        79.18195
396.36        79.04699
396.81        78.70878
397.26        78.35484
397.71        78.02679
398.15        77.74619
398.60        77.62274
399.05        77.39981
399.50        77.12868
399.95        77.31247
400.39        77.77222
400.84        77.43562
401.29        76.42316
401.74         75.9486
402.18        76.03535
402.63        75.72861
403.08        75.09867
403.53        74.80261
403.97        74.85249
404.42        74.96543
404.87        75.04005
405.32        74.97129
405.76        74.70811
406.21        74.41243
406.66        74.13766
407.11        73.77309
407.55         73.4725
408.00        73.64384
408.45        74.09222
408.90        74.37197
409.34        74.27197
409.79        73.76843
410.24        73.06701
410.68        72.65366
411.13        72.60617
411.58        72.65443
412.03        72.69793
412.47        72.69132
412.92          72.571
413.37        72.38381
413.81        72.18573
414.26        72.12775
414.71        72.20733
415.15        72.40507
415.60        72.62363
416.05        72.78255
416.49        72.85219
416.94        72.84336
417.39         72.8037
417.83        72.79146
418.28        72.82838
418.73        72.89472
419.17        72.96203
419.62        72.98921
420.07        72.95718
420.51         72.8602
420.96        72.76408
421.41        72.67992
421.85        72.59116
422.30        72.64672
422.74        72.71314
423.19        72.52402
423.64        72.12164
424.08        71.96017
424.53        72.07907
424.98        72.18211
425.42        72.25956
425.87        72.62115
426.31        73.10347
426.76         72.9405
427.21        72.27521
427.65        72.07245
428.10        72.31546
428.54        72.39716
428.99        72.37455
429.44         72.1688
429.88        71.98242
430.33        72.82459
430.77        74.24742
431.22        74.35761
431.66        74.10183
432.11        73.15607
432.56        72.24763
433.00        72.05464
433.45        72.74715
433.89        73.60768
434.34        73.86799
434.78        74.62022
435.23        73.94958
435.67        71.44279
436.12        72.34167
436.57        72.38497
437.01        72.97816
437.46        73.20808
437.90        73.08372
438.35        72.60226
438.79        72.78694
439.24        72.80134
439.68        72.91136
440.13        73.21172
440.57        73.65314
441.02        73.78372
441.46        73.63294
441.91        74.03417
442.35        74.69269
442.80        74.58924
443.24        73.87725
443.69        73.81994
444.13        74.35983
444.58        74.62354
445.02        74.60533
445.47        74.34783
445.91        74.74384
446.36        74.85372
446.80         74.9171
447.24        74.97202
447.69        75.02361
448.13         75.0403
448.58        75.03111
449.02        74.98634
449.47        74.92896
449.91        74.86387
450.36        74.81914
450.80         74.7692
451.25        74.74585
451.69        74.73268
452.13        74.74497
452.58        74.78354
453.02        74.81896
453.47          74.812
453.91        74.74086
454.36        74.62055
454.80        74.48966
455.24        74.30338
455.69         74.0657
456.13        74.00959
456.58        74.14458
457.02        73.48505
457.46        72.97975
457.91        73.11842
458.35        73.82023
458.79        73.79344
459.24        73.05657
459.68        72.19567
460.13        71.50616
460.57        71.28637
461.01        71.69339
461.46        71.88268
461.90        72.35058
462.34        73.48811
462.79        73.19225
463.23          73.034
463.68        72.97527
464.12        72.63441
464.56         72.1781
465.01        71.45142
465.45        70.68396
465.89        70.46191
466.34        70.65618
466.78        71.03934
467.22        71.58391
467.67        70.46526
468.11        70.83957
468.55         70.6142
468.99        70.69341
469.44        70.57146
469.88        70.27848
470.32        70.08972
470.77        69.99232
471.21        69.88767
471.65        69.76022
472.10        69.65898
472.54        69.58817
472.98        69.51844
473.42        69.43384
473.87        69.47517
474.31        69.54848
474.75        69.27147
475.20        68.80703
475.64        68.85269
476.08         69.3409
476.52        69.41305
476.97        68.96886
477.41        68.76962
477.85        69.05524
478.29        68.28449
478.74        68.58192
479.18        69.60546
479.62         69.0045
480.06        69.07861
480.50        68.85851
480.95        69.11817
481.39        69.24062
481.83        68.29202
482.27        68.40512
482.72        68.99949
483.16        68.60378
483.60        68.39001
484.04        68.65446
484.48        68.85441
484.93        68.95891
485.37        68.78036
485.81        68.08383
486.25        67.78351
486.69        69.34509
487.14        70.88123
487.58        69.05623
488.02        68.72927
488.46        67.70421
488.90        67.24702
489.34        68.02608
489.79        69.26266
490.23        68.58598
490.67        68.20844
491.11        67.61588
491.55        67.50907
491.99        67.84431
492.43        67.67979
492.88        66.98768
493.32        67.37125
493.76        67.07317
494.20         67.2704
494.64        67.39917
495.08        67.59953
495.52        67.79397
495.96        67.81389
496.41        67.67836
496.85        67.60394
497.29        67.49265
497.73         67.3755
498.17        66.51884
498.61        66.41702
499.05        66.78996
499.49        67.16782
499.93        67.19652
500.37        67.24735
500.82        67.25739
501.26        67.24931
501.70        67.24288
502.14        67.23115
502.58        67.23882
503.02        67.27896
503.46        67.35559
503.90        67.49855
504.34        67.63182
504.78        67.60019
505.22        67.38455
505.66        67.04318
506.10        66.69164
506.54        66.50806
506.98        66.53133
507.42        66.70209
507.86        66.92589
508.30        67.04566
508.74        67.01586
509.18        66.89164
509.62        66.71635
510.06        66.55997
510.50        66.45219
510.94        66.36427
511.38        66.31673
511.82        66.34608
512.26        66.44941
512.70        66.62162
513.14        66.79734
513.58        66.86622
514.02        66.80804
514.46        66.64649
514.90        66.44615
515.34        66.37612
515.78        66.46214
516.22         66.5686
516.66        66.60463
517.10        66.93037
517.54        66.72231
517.98         66.6595
518.42        66.53153
518.86        66.39644
519.30        66.27193
519.74        66.15446
520.18        66.07934
520.62        66.08105
521.06        66.16466
521.50        66.32371
521.93        66.51001
522.37        66.61894
522.81        66.63361
523.25        66.57391
523.69        66.49371
524.13        66.48329
524.57         66.5575
525.01        66.67819
525.45        66.79343
525.89        66.82028
526.32        66.73293
526.76         66.5864
527.20        66.40544
527.64        66.23265
528.08        66.09033
528.52        65.96487
528.96        65.88537
529.40        65.89729
529.83        65.99507
530.27        66.16912
530.71        66.34371
531.15        66.40306
531.59        66.32353
532.03         66.1368
532.46        65.90363
532.90        65.76938
533.34        65.75617
533.78         65.7859
534.22        65.81516
534.66        65.85838
535.09        65.84932
535.53        65.66042
535.97        65.34691
536.41        65.16278
536.85        65.13972
537.28        65.15101
537.72        65.18996
538.16        65.29668
538.60        65.45509
539.04        65.64635
539.47         65.8206
539.91        65.94456
540.35        65.98887
540.79        65.96305
541.22        65.88361
541.66        65.79294
542.10        65.69938
542.54         65.6295
542.97        65.56736
543.41        65.44619
543.85        65.29623
544.29        65.29154
544.72         65.3931
545.16        65.44019
545.60        65.41524
546.04        65.41834
546.47        65.46944
546.91        65.58264
547.35        65.75762
547.79        65.89262
548.22        65.96728
548.66        66.14959
549.10        66.39769
549.53        66.21619
549.97        65.71665
550.41        65.36201
550.84         65.2823
551.28        65.35035
551.72        65.45168
552.15        65.57793
552.59        65.77466
553.03        65.11028
553.46        65.59035
553.90        65.50073
554.34        65.40675
554.77        65.50539
555.21        65.57601
555.65        65.51907
556.08        65.71111
556.52        65.80264
556.96        65.89185
557.39        65.86256
557.83        65.69781
558.27        65.67043
558.70        65.18988
559.14         65.0775
559.57        65.11399
560.01        65.11173
560.45         65.0787
560.88        65.13593
561.32        65.30226
561.75        65.57848
562.19        65.88018
562.63        65.78676
563.06        65.40387
563.50        65.39703
563.93        65.67407
564.37        65.74886
564.80         65.6274
565.24        65.43631
565.68        65.08708
566.11        65.75224
566.55        65.08052
566.98        64.99301
567.42         64.9063
567.85        65.04366
568.29         65.3857
568.72        65.71959
569.16        66.05862
569.60        66.26611
570.03        66.22076
570.47        66.34837
570.90        66.68349
571.34        65.81052
571.77        66.19493
572.21        66.86337
572.64        66.29788
573.08        66.88589
573.51        66.13146
573.95        66.07089
574.38        66.35836
574.82        66.59617
