SpectraSmart Spectrum 2.9.0.0
--------- Device Information -----------
Spectrum Name :  反射率_0
Saving Time :  2024/04/26 23:17:12
Spectro-Module Model Name : SE2030-DUVN
Spectro-Module Serial Number : OS361AC55029948
Wavelength Start : 200
Wavelength End : 1025
Wavelength Unit : Wavelength(nm)
Spectrum Unit : Reflectance(%)
-----------Spectrum Setting ------------
Integration Time : 20ms
Average : 10
Boxcar : 0
Background removal :  enabled
linearity correction :  enabled
SC :  disabled
Intensity correction :  disabled
DWT denoise :  enabled
savitzky-golay :  disabled
FFT :  disabled
Running average :  disabled
Kalman :  disabled
High pass :  disabled
---------------BEGIN--------------------
Wavelength(nm)             Reflectance(%)
200.29               0
200.75        38.87097
201.21        40.92134
201.67        43.48293
202.13        46.33282
202.58         49.5794
203.04        53.98456
203.50        59.42659
203.96        63.99821
204.42        66.01988
204.88        65.19907
205.34        62.25048
205.80        59.70859
206.26         58.5584
206.72        57.97106
207.18        57.84119
207.64        57.98187
208.10        58.26558
208.55        59.43351
209.01         60.1374
209.47        57.66542
209.93        52.78836
210.39        48.31338
210.85        45.78706
211.31        45.61808
211.77        47.92404
212.23        54.59396
212.69        73.76929
213.14         114.715
213.60        126.6571
214.06        108.3384
214.52        91.84653
214.98        82.43997
215.44        76.15836
215.90        69.84985
216.36        63.88657
216.81        59.32266
217.27        56.86113
217.73        57.38926
218.19        60.62996
218.65        63.11535
219.11        62.99693
219.57        61.12293
220.02        61.25662
220.48        67.40311
220.94        80.30775
221.40        102.2205
221.86        130.7548
222.32        142.5959
222.77        122.9257
223.23        89.98705
223.69        62.27768
224.15        48.98499
224.61        46.44183
225.06        48.85366
225.52        52.85196
225.98        55.09175
226.44        55.12106
226.90        54.27841
227.36        52.67178
227.81        50.41564
228.27         47.9964
228.73        45.17015
229.19        42.81714
229.65        42.00304
230.10         42.6121
230.56        44.39886
231.02        46.10744
231.48        45.71738
231.93        43.07744
232.39        39.33725
232.85        35.98021
233.31        34.93642
233.77        36.34131
234.22        39.48114
234.68        43.21735
235.14        45.88732
235.60        46.95026
236.05        46.85481
236.51        46.10065
236.97         45.7487
237.43        46.29631
237.88        47.50628
238.34        49.01179
238.80        50.51725
239.26        52.05544
239.71        54.21553
240.17        57.41435
240.63        62.64648
241.08         70.3392
241.54        79.68752
242.00        90.20785
242.46        102.1243
242.91        117.1483
243.37          136.34
243.83        160.2661
244.28        180.4872
244.74        181.7788
245.20        163.0104
245.66        137.6378
246.11        116.9784
246.57        101.9943
247.03        90.09977
247.48        80.14254
247.94        72.16957
248.40        67.33425
248.85        65.22619
249.31        64.92166
249.77        65.06181
250.22        65.22736
250.68        65.45113
251.14        65.98826
251.59        67.40723
252.05        69.79798
252.51        72.70241
252.96        74.51868
253.42        74.55502
253.88        73.09264
254.33        70.34727
254.79        68.67449
255.25        69.66695
255.70        72.88699
256.16        77.61595
256.62        81.12392
257.07        79.57368
257.53        74.61232
257.99        68.85955
258.44        64.19344
258.90        62.44894
259.35        62.56786
259.81         63.8517
260.27        65.14999
260.72        65.17858
261.18        64.09218
261.63        62.17036
262.09        60.34264
262.55        59.04114
263.00        58.16901
263.46        57.67329
263.91        56.96128
264.37        55.63113
264.83        53.70674
265.28        51.43865
265.74        49.50424
266.19        48.43381
266.65        48.30311
267.11        48.75432
267.56        49.32717
268.02        49.29868
268.47        48.48246
268.93        47.16497
269.38        45.57646
269.84        44.13072
270.30        42.95438
270.75        41.90603
271.21        41.05127
271.66        40.43373
272.12        40.02932
272.57        39.82095
273.03         39.6124
273.48        39.05761
273.94         38.1544
274.39        36.97748
274.85        35.82288
275.31        34.97669
275.76        34.45811
276.22        34.18329
276.67         33.9618
277.13        33.61332
277.58        33.04585
278.04        32.37024
278.49        31.61008
278.95        30.90927
279.40         30.2657
279.86         29.7136
280.31        29.19181
280.77        28.72097
281.22        28.25937
281.68        27.85525
282.13        27.51429
282.59        27.32122
283.04        27.24422
283.50        27.27942
283.95        27.32153
284.41        27.21931
284.86        26.95345
285.32        26.60506
285.77        26.29438
286.22        26.25356
286.68        26.50625
287.13         26.9252
287.59        27.38636
288.04        27.65421
288.50        27.68962
288.95        27.54354
289.41        27.29807
289.86        27.00562
290.32        26.74667
290.77        26.50873
291.22        26.35497
291.68        26.36337
292.13        26.54706
292.59        26.91979
293.04        27.46603
293.50        28.16536
293.95        28.98948
294.40        29.93999
294.86        30.98812
295.31        32.08191
295.77        33.21605
296.22        34.38339
296.68        35.61448
297.13        36.94988
297.58        38.40535
298.04        39.96415
298.49        41.60321
298.95        43.30222
299.40        45.03299
299.85        46.80535
300.31        48.59768
300.76        50.35719
301.21         52.0874
301.67        53.81295
302.12        55.54972
302.58        57.41243
303.03        59.36234
303.48        61.37847
303.94        63.41498
304.39        65.33849
304.84        67.15456
305.30        68.92268
305.75        70.63562
306.20        72.36938
306.66        74.16013
307.11        75.94983
307.57        77.75507
308.02        79.49809
308.47        81.17915
308.93        82.80413
309.38        84.37048
309.83         85.9909
310.29        87.67838
310.74        89.39518
311.19        90.99212
311.65        92.20322
312.10        92.96257
312.55        93.34808
313.00        93.62347
313.46        94.20134
313.91        95.14822
314.36        96.38244
314.82        97.64034
315.27        98.49784
315.72        98.83886
316.18        98.83502
316.63         98.7196
317.08         98.9042
317.53        99.48994
317.99        100.3242
318.44        101.2447
318.89         101.958
319.35        102.3669
319.80        102.5782
320.25        102.6659
320.70        102.7463
321.16        102.8703
321.61        103.0325
322.06        103.2389
322.51        103.5189
322.97        103.8521
323.42        104.2335
323.87        104.6601
324.32         105.142
324.78        105.6254
325.23         106.174
325.68        106.5997
326.13        106.6223
326.59        106.2127
327.04        105.4981
327.49        104.7915
327.94         104.616
328.39        105.0899
328.85        106.0352
329.30        107.2568
329.75        108.1308
330.20        108.4484
330.66        108.3474
331.11        108.0967
331.56        108.0688
332.01        108.3863
332.46        108.8933
332.92        109.4297
333.37        109.9007
333.82        110.1901
334.27        110.4119
334.72        110.5611
335.17        110.5979
335.63        110.5484
336.08        110.4827
336.53        110.5763
336.98        111.1686
337.43        112.3076
337.88        113.8559
338.34        115.5182
338.79        116.9081
339.24        117.8054
339.69        118.3042
340.14        118.4451
340.59        118.3328
341.05        118.0937
341.50        117.7211
341.95         117.406
342.40        117.4394
342.85        117.8841
343.30        118.6749
343.75        119.6632
344.20         120.566
344.66        121.2772
345.11        121.8537
345.56        122.2827
346.01        122.5676
346.46        122.7443
346.91        122.8093
347.36        122.8631
347.81        123.0872
348.26        123.4989
348.72        124.0258
349.17        124.5677
349.62        124.9933
350.07        125.2539
350.52        125.4233
350.97        125.4083
351.42        125.0693
351.87        124.4345
352.32        123.5543
352.77        122.7599
353.22         122.536
353.67        122.9452
354.13        123.8447
354.58         124.815
355.03        125.1008
355.48        124.5243
355.93         123.315
356.38        121.9624
356.83        121.2118
357.28        121.2122
357.73        121.7031
358.18        122.2702
358.63        122.2498
359.08         121.468
359.53        120.1667
359.98        118.6569
360.43        117.3756
360.88        116.4464
361.33        115.7371
361.78        115.1014
362.23        114.3249
362.68        113.3645
363.13        112.3226
363.58        111.3261
364.03        110.5411
364.48        109.9889
364.93         109.585
365.38        109.2025
365.83        108.6582
366.28        107.9039
366.73        107.0011
367.18        106.0339
367.63        105.1289
368.08         104.328
368.53        103.6023
368.98        102.9184
369.43        102.2195
369.88        101.4923
370.33        100.7629
370.78        100.0666
371.23        99.46238
371.68        98.95804
372.13        98.51406
372.58        98.08765
373.03        97.61405
373.48        97.06172
373.93        96.44287
374.38        95.74196
374.83        94.94626
375.28        94.07365
375.72        93.12152
376.17        92.21174
376.62        91.41045
377.07         90.7506
377.52        90.24484
377.97        89.83527
378.42        89.43366
378.87        89.01569
379.32        88.56428
379.77        88.20007
380.22        88.10348
380.67        88.26733
381.11        88.65646
381.56        88.91125
382.01        88.53646
382.46        87.48177
382.91        85.98071
383.36        84.49876
383.81        83.67164
384.26        83.59665
384.71         84.0558
385.15         84.7309
385.60        85.06351
386.05        84.87897
386.50        84.34449
386.95        83.60285
387.40        82.88161
387.85        82.27724
388.29        81.67171
388.74        81.17259
389.19        80.72405
389.64        80.31407
390.09        79.96563
390.54        79.66721
390.98        79.36916
391.43         79.0959
391.88         78.8292
392.33        78.58548
392.78        78.34228
393.23        78.08699
393.67         77.9278
394.12        77.86655
394.57        77.42888
395.02        76.75993
395.47        76.60897
395.91        76.91841
396.36        76.89551
396.81        76.51985
397.26        76.24308
397.71        76.07996
398.15        75.84701
398.60        75.63796
399.05        75.37125
399.50        75.08634
399.95        75.02372
400.39        75.12623
400.84         74.8828
401.29        74.34369
401.74        74.09818
402.18        74.11277
402.63        73.75965
403.08        73.15187
403.53        72.87511
403.97        72.95644
404.42        73.11949
404.87        73.24319
405.32        73.21719
405.76        72.98805
406.21        72.66718
406.66        72.33161
407.11        72.02171
407.55        71.84718
408.00        71.93142
408.45        72.19251
408.90        72.33481
409.34        72.22983
409.79        71.83328
410.24        71.29328
410.68        70.95107
411.13         70.8641
411.58        70.85365
412.03        70.82693
412.47        70.71259
412.92        70.46627
413.37        70.15147
413.81        69.86089
414.26        69.79344
414.71        69.95031
415.15        70.29324
415.60        70.68575
416.05        70.96873
416.49        71.08278
416.94        71.06013
417.39        70.96249
417.83        70.87376
418.28        70.83308
418.73        70.81697
419.17        70.82115
419.62        70.84297
420.07        70.86221
420.51        70.86009
420.96         70.8726
421.41        70.83156
421.85         70.7028
422.30        70.74691
422.74        70.82975
423.19        70.47601
423.64        69.83836
424.08         69.8417
424.53        70.44176
424.98        70.77804
425.42        70.78511
425.87        71.03204
426.31        71.43243
426.76        71.31204
427.21        70.78973
427.65        70.59308
428.10        70.69885
428.54        70.70087
428.99        70.64642
429.44         70.3588
429.88        70.07994
430.33        70.84643
430.77        72.18648
431.22        72.57586
431.66        72.17536
432.11        71.26436
432.56        70.38019
433.00        70.23433
433.45        70.97248
433.89         72.0574
434.34        72.68537
434.78        73.12266
435.23        72.24333
435.67        70.01363
436.12        70.68723
436.57         70.8443
437.01        71.46555
437.46        71.74384
437.90        71.69479
438.35        70.74907
438.79        71.07848
439.24          71.017
439.68        71.15541
440.13        71.58079
440.57         72.2055
441.02        72.35545
441.46        72.07118
441.91        72.54512
442.35        73.41617
442.80        73.18916
443.24         72.1083
443.69        72.07182
444.13        72.99722
444.58        73.38271
445.02        73.17498
445.47        73.22163
445.91        73.56335
446.36        73.81876
446.80        73.94287
447.24        74.18965
447.69         74.5844
448.13        74.22511
448.58        74.59714
449.02        74.50577
449.47         74.4089
449.91        74.27419
450.36        74.14932
450.80        74.00364
451.25        73.88785
451.69        73.85327
452.13        73.91913
452.58        74.06278
453.02        74.22559
453.47        74.32078
453.91        74.30905
454.36        74.21127
454.80        74.04987
455.24        73.81126
455.69        73.50322
456.13        73.27957
456.58        73.18117
457.02        72.65295
457.46        71.86958
457.91        72.27526
458.35        72.51299
458.79        72.47487
459.24        71.83832
459.68        71.09025
460.13        70.49384
460.57        70.28704
461.01        70.47449
461.46        70.85295
461.90        71.16751
462.34        72.05181
462.79         71.6793
463.23        71.66221
463.68        71.50985
464.12        71.28352
464.56         70.9403
465.01        70.46753
465.45        69.95632
465.89        69.58942
466.34        69.34241
466.78        69.76048
467.22        70.06656
467.67        69.50225
468.11        69.30441
468.55        69.27659
468.99        69.71762
469.44        69.71828
469.88        69.26756
470.32        68.84602
470.77        68.54861
471.21        68.34542
471.65        68.25504
472.10        68.28088
472.54        68.37372
472.98        68.41975
473.42        68.37132
473.87        68.41856
474.31        68.45818
474.75        68.03893
475.20        67.35377
475.64        67.23739
476.08        67.66233
476.52        67.65348
476.97        67.13418
477.41        67.13729
477.85        67.44498
478.29        66.60828
478.74        67.50373
479.18        67.60454
479.62        67.55276
480.06        67.53725
480.50        67.44579
480.95        67.52316
481.39         67.8084
481.83        66.97576
482.27        67.11628
482.72        67.59792
483.16        67.13025
483.60        67.18476
484.04        67.20564
484.48        67.33302
484.93        67.34077
485.37        67.26881
485.81        66.75637
486.25        66.63919
486.69        68.42048
487.14        69.69562
487.58         67.4102
488.02        67.21158
488.46        66.22609
488.90        66.51183
489.34        67.27719
489.79        67.58931
490.23        67.33789
490.67        66.70485
491.11        66.01421
491.55        65.87258
491.99        66.22279
492.43         66.2203
492.88        65.85175
493.32        65.75781
493.76        65.95583
494.20         66.1039
494.64        66.16692
495.08        66.27751
495.52        66.39826
495.96        66.35056
496.41        66.16972
496.85        66.16415
497.29        66.19218
497.73        66.15171
498.17        65.28595
498.61        65.09695
499.05        65.34418
499.49        65.56261
499.93        65.45535
500.37        65.59518
500.82         65.8804
501.26        65.93194
501.70        65.68245
502.14        65.98658
502.58        65.55114
503.02        65.59848
503.46        65.74532
503.90        65.98865
504.34        66.20998
504.78        66.24584
505.22        66.07446
505.66        65.72799
506.10        65.33134
506.54        65.10617
506.98        65.07051
507.42        65.09119
507.86        65.15179
508.30        65.08682
508.74        65.27494
509.18        65.33625
509.62        65.37232
510.06        65.37738
510.50        65.35036
510.94         65.2779
511.38        65.18046
511.82        65.10887
512.26        65.07715
512.70        65.08121
513.14        65.10473
513.58        65.11586
514.02        65.10777
514.46        65.08988
514.90        65.08294
515.34        65.11958
515.78        65.20019
516.22        65.30423
516.66        65.39803
517.10        65.43062
517.54        65.39104
517.98        65.30117
518.42        65.18099
518.86        65.06306
519.30        64.96413
519.74        64.87672
520.18        64.81973
520.62        64.81949
521.06         64.8776
521.50        64.99234
521.93        65.12429
522.37        65.18539
522.81        65.16559
523.25        65.08061
523.69        64.98586
524.13        64.97446
524.57        65.05616
525.01        65.18661
525.45        65.30435
525.89        65.31071
526.32        65.17941
526.76        64.97713
527.20        64.72714
527.64        64.47602
528.08        64.25535
528.52        64.03389
528.96        63.87848
529.40        63.93851
529.83        64.19029
530.27        64.49889
530.71        64.75603
531.15        64.88723
531.59        64.85498
532.03        64.64194
532.46        64.33824
532.90        64.17432
533.34        64.17262
533.78        64.24517
534.22        64.31749
534.66        64.36069
535.09        64.30357
535.53        64.04232
535.97        63.66151
536.41        63.45323
536.85        63.45608
537.28        63.52566
537.72        63.63203
538.16        63.77791
538.60         63.9349
539.04        64.09877
539.47         64.2224
539.91        64.27477
540.35        64.23855
540.79        64.12808
541.22        63.98425
541.66        63.89801
542.10        63.88477
542.54        63.92179
542.97        63.97202
543.41        64.00539
543.85        63.99973
544.29        63.97518
544.72        63.92859
545.16        63.89244
545.60        63.86724
546.04        63.85433
546.47        63.86475
546.91        63.93662
547.35        64.06885
547.79        64.17404
548.22        64.24062
548.66        64.40825
549.10        64.65118
549.53         64.5555
549.97        64.19437
550.41        63.89569
550.84        63.77219
551.28        63.75849
551.72        63.77733
552.15        63.85008
552.59        64.03323
553.03        63.42263
553.46        63.94742
553.90        63.85544
554.34        63.79786
554.77        63.87896
555.21        63.81578
555.65        63.91402
556.08        64.02002
556.52        64.16058
556.96        64.26202
557.39        64.19365
557.83        63.94324
558.27        63.83121
558.70        63.29218
559.14        63.17173
559.57        63.26469
560.01        63.34405
560.45        63.38869
560.88        63.59507
561.32         63.9221
561.75        64.07267
562.19        64.05328
562.63        63.97144
563.06        63.87329
563.50        63.84534
563.93        63.83644
564.37         63.8368
564.80        63.86027
565.24        63.77871
565.68        63.46609
566.11        64.10741
566.55        63.40486
566.98        63.22746
567.42        63.07096
567.85        63.15141
568.29        63.67643
568.72        64.07371
569.16        64.44547
569.60        64.62918
570.03        64.78751
570.47        65.01296
570.90        65.42812
571.34        64.53702
571.77        64.67657
572.21        65.28745
572.64        65.18016
573.08        65.50948
573.51         64.5617
573.95        64.47575
574.38        65.09665
574.82        65.10358
