SpectraSmart Spectrum 2.9.0.0
--------- Device Information -----------
Spectrum Name :  反射率_0
Saving Time :  2024/04/26 23:21:25
Spectro-Module Model Name : SE2030-DUVN
Spectro-Module Serial Number : OS361AC55029948
Wavelength Start : 200
Wavelength End : 1025
Wavelength Unit : Wavelength(nm)
Spectrum Unit : Reflectance(%)
-----------Spectrum Setting ------------
Integration Time : 20ms
Average : 10
Boxcar : 0
Background removal :  enabled
linearity correction :  enabled
SC :  disabled
Intensity correction :  disabled
DWT denoise :  enabled
savitzky-golay :  disabled
FFT :  disabled
Running average :  disabled
Kalman :  disabled
High pass :  disabled
---------------BEGIN--------------------
Wavelength(nm)             Reflectance(%)
200.29               0
200.75        40.18371
201.21         38.8629
201.67        39.08718
202.13         40.7393
202.58        43.71849
203.04        49.07119
203.50        56.46235
203.96         62.7983
204.42        65.53254
204.88        64.01908
205.34        60.14647
205.80        58.94805
206.26        61.37753
206.72        65.07925
207.18        67.83117
207.64        67.61781
208.10        64.15187
208.55         57.9876
209.01         48.3946
209.47        40.28765
209.93        38.88533
210.39        41.91539
210.85        46.09524
211.31        50.35068
211.77        55.92883
212.23        66.45712
212.69        92.55361
213.14        143.1855
213.60        152.6343
214.06        125.7873
214.52        102.9112
214.98        88.42351
215.44        77.05556
215.90        65.12337
216.36        54.55793
216.81        49.36262
217.27        51.14023
217.73        60.85975
218.19        76.59273
218.65        83.41154
219.11        75.26801
219.57        61.99218
220.02        52.74784
220.48        52.01142
220.94        58.86908
221.40        73.37737
221.86        94.88306
222.32        109.0915
222.77        103.4141
223.23        87.63062
223.69         71.8472
224.15        61.52882
224.61        55.87239
225.06        52.33304
225.52        50.45317
225.98        49.65019
226.44         49.5491
226.90        50.24794
227.36        51.11949
227.81        51.04567
228.27        49.94875
228.73        48.02142
229.19        46.13763
229.65        45.30908
230.10        45.53785
230.56        46.57789
231.02        47.45227
231.48        46.68649
231.93         44.2201
232.39        40.99262
232.85        38.27871
233.31        37.73812
233.77        39.43963
234.22         42.7728
234.68        46.56217
235.14        49.05897
235.60        49.73645
236.05         49.0568
236.51        47.67244
236.97        47.01995
237.43        47.72647
237.88        49.43238
238.34           51.62
238.80        53.74612
239.26        55.70737
239.71        58.14038
240.17        61.12468
240.63        64.96606
241.08        69.77213
241.54        74.81359
242.00        80.30785
242.46        87.47514
242.91        98.19094
243.37        113.6333
243.83         135.141
244.28        156.4411
244.74         164.251
245.20         155.522
245.66        139.6705
246.11        126.6869
246.57        118.0886
247.03        111.3618
247.48        104.3127
247.94        95.20038
248.40        86.45103
248.85        79.94024
249.31        75.99958
249.77        73.53143
250.22        71.65826
250.68        69.71497
251.14        68.33579
251.59        69.48489
252.05        73.73973
252.51        80.09494
252.96        84.48612
253.42        84.02989
253.88        79.65539
254.33        72.85108
254.79        68.15625
255.25        69.20411
255.70        75.34378
256.16        84.88612
256.62        93.01627
257.07        92.72735
257.53        86.02908
257.99        77.43784
258.44        70.51588
258.90        68.29155
259.35        69.29179
259.81        72.12427
260.27        74.78933
260.72        74.94221
261.18        72.85934
261.63         69.4536
262.09        66.29564
262.55        64.37949
263.00        63.58713
263.46        63.56485
263.91        63.46573
264.37        62.62271
264.83        60.96825
265.28        58.83727
265.74        56.95426
266.19        55.86041
266.65        55.65451
267.11         55.9464
267.56        56.28502
268.02        55.98741
268.47        54.88409
268.93        53.27839
269.38        51.39971
269.84        49.65329
270.30        48.17231
270.75        46.83358
271.21        45.72563
271.66        44.91358
272.12        44.37236
272.57        44.05936
273.03        43.76559
273.48        43.12655
273.94        42.12983
274.39        40.84962
274.85        39.56295
275.31        38.51465
275.76        37.73568
276.22        37.18283
276.67        36.70974
277.13        36.20962
277.58        35.59688
278.04        34.94363
278.49        34.26201
278.95        33.68771
279.40        33.18484
279.86         32.7788
280.31        32.33067
280.77        31.76196
281.22        31.03506
281.68        30.26313
282.13         29.5435
282.59        29.09234
283.04        28.90093
283.50        28.92389
283.95        29.02154
284.41        28.98793
284.86        28.77217
285.32        28.46528
285.77         28.1701
286.22         28.0949
286.68        28.26695
287.13        28.57162
287.59        28.90048
288.04        29.04616
288.50        28.98463
288.95        28.75521
289.41        28.46975
289.86        28.21946
290.32        28.07777
290.77        28.01293
291.22        28.01467
291.68        28.04904
292.13        28.11497
292.59        28.26729
293.04        28.57175
293.50        29.14161
293.95          29.979
294.40         31.0369
294.86        32.23117
295.31        33.42114
295.77        34.57153
296.22        35.70546
296.68        36.85613
297.13        38.06572
297.58        39.36096
298.04        40.71998
298.49        42.15494
298.95        43.70952
299.40        45.36005
299.85        47.09007
300.31        48.83339
300.76        50.46294
301.21        51.97052
301.67        53.42281
302.12        54.85422
302.58        56.40422
303.03        58.06263
303.48        59.81047
303.94          61.657
304.39        63.55227
304.84        65.49856
305.30        67.51454
305.75        69.50663
306.20         71.4156
306.66        73.24447
307.11        74.97699
307.57        76.67832
308.02           78.35
308.47        80.02289
308.93        81.68431
309.38        83.33341
309.83        85.08524
310.29        86.94984
310.74        88.89316
311.19        90.75681
311.65        92.24925
312.10        93.29176
312.55        93.96287
313.00        94.51676
313.46         95.3614
313.91        96.56738
314.36        98.05045
314.82         99.5682
315.27        100.7315
315.72        101.4178
316.18        101.7757
316.63        101.9964
317.08        102.4307
317.53        103.1712
317.99        104.0925
318.44        105.0531
318.89        105.7947
319.35        106.2365
319.80        106.4695
320.25        106.6008
320.70        106.7979
321.16        107.1133
321.61         107.537
322.06        107.9865
322.51        108.3419
322.97         108.556
323.42        108.6674
323.87        108.8063
324.32        109.2021
324.78        109.8539
325.23        110.7718
325.68        111.6311
326.13        111.9074
326.59        111.4987
327.04        110.6045
327.49        109.6633
327.94         109.399
328.39        109.9813
328.85        111.1636
329.30         112.661
329.75         113.681
330.20        113.9566
330.66        113.6824
331.11        113.2018
331.56        112.9942
332.01        113.2252
332.46        113.7168
332.92        114.2802
333.37        114.7801
333.82        115.0828
334.27        115.3135
334.72        115.5062
335.17        115.6788
335.63        115.8577
336.08        116.0864
336.53        116.4468
336.98        117.1354
337.43        118.1663
337.88        119.4369
338.34        120.7621
338.79        121.9547
339.24        122.8501
339.69        123.4947
340.14         123.824
340.59        123.7645
341.05        123.4027
341.50        122.7992
341.95        122.2378
342.40         122.145
342.85        122.6169
343.30        123.5345
343.75        124.6922
344.20        125.7217
344.66        126.4795
345.11        127.0416
345.56         127.409
346.01         127.605
346.46        127.6801
346.91        127.6353
347.36        127.5636
347.81        127.6374
348.26        127.8819
348.72        128.2316
349.17         128.644
349.62        129.0744
350.07          129.48
350.52         129.904
350.97        130.1486
351.42        129.9043
351.87        129.1657
352.32        128.0393
352.77        126.9657
353.22        126.5962
353.67        127.0302
354.13        128.0682
354.58        129.2216
355.03        129.6178
355.48        129.0396
355.93        127.7576
356.38        126.2895
356.83        125.4191
357.28        125.3114
357.73        125.6886
358.18         126.148
358.63        126.0488
359.08        125.2245
359.53        123.9235
359.98        122.4314
360.43         121.141
360.88        120.1673
361.33        119.3821
361.78        118.6799
362.23        117.9142
362.68        117.0465
363.13        116.1493
363.58        115.2772
364.03        114.4865
364.48        113.7776
364.93        113.1035
365.38        112.4118
365.83        111.6415
366.28        110.7847
366.73         109.875
367.18        108.9475
367.63        108.0496
368.08        107.1982
368.53        106.3828
368.98        105.6087
369.43        104.8774
369.88        104.1856
370.33        103.5396
370.78        102.9109
371.23        102.2576
371.68        101.5711
372.13        100.8467
372.58        100.1388
373.03        99.53608
373.48        99.03787
373.93        98.60458
374.38        98.12223
374.83        97.41746
375.28          96.469
375.72        95.33289
376.17        94.19855
376.62        93.23048
377.07        92.49154
377.52        91.95656
377.97        91.55881
378.42        91.19923
378.87          90.838
379.32        90.46175
379.77        90.15611
380.22        90.04599
380.67        90.11484
381.11        90.33785
381.56        90.39762
382.01        89.88293
382.46        88.77283
382.91        87.28458
383.36        85.84145
383.81        85.01399
384.26         84.8858
384.71        85.25669
385.15        85.84853
385.60        86.16932
386.05        86.05246
386.50        85.63121
386.95        84.99361
387.40        84.28635
387.85        83.59618
388.29        82.84669
388.74         82.1846
389.19        81.60365
389.64        81.10462
390.09        80.68533
390.54        80.35677
390.98        80.10557
391.43        79.95654
391.88        79.88335
392.33        79.81863
392.78        79.64853
393.23        79.35654
393.67        78.99555
394.12        78.69186
394.57        78.35245
395.02        78.05045
395.47        78.03091
395.91        78.21272
396.36        78.15958
396.81        77.85915
397.26        77.55151
397.71         77.2491
398.15        76.92153
398.60        76.68085
399.05        76.26376
399.50        75.79869
399.95        75.93619
400.39        76.47941
400.84        76.25793
401.29        75.33074
401.74        74.78459
402.18        74.69778
402.63        74.42078
403.08         74.0118
403.53        73.83232
403.97        73.88605
404.42         74.0657
404.87        74.26182
405.32         74.2953
405.76        74.11951
406.21        73.83393
406.66        73.49601
407.11        73.24829
407.55        73.16469
408.00        73.03113
408.45        72.87938
408.90        73.11651
409.34        73.53206
409.79        73.25318
410.24        72.45398
410.68        72.10159
411.13        72.25694
411.58        72.39082
412.03        72.37739
412.47        72.25916
412.92        71.99142
413.37        71.61404
413.81        71.24869
414.26        71.13717
414.71        71.29006
415.15        71.66458
415.60        72.11771
416.05        72.47077
416.49        72.65295
416.94        72.69961
417.39        72.65465
417.83        72.57938
418.28        72.50557
418.73         72.4035
419.17        72.30309
419.62        72.26186
420.07        72.28679
420.51        72.35829
420.96        72.45097
421.41        72.46294
421.85        72.36267
422.30        72.23559
422.74        72.07609
423.19         72.0442
423.64        72.09408
424.08        72.07156
424.53        72.01082
424.98        72.10162
425.42        72.34364
425.87        72.77866
426.31        73.21687
426.76        72.93071
427.21        72.10397
427.65        71.84808
428.10        72.16785
428.54        72.30988
428.99        72.32172
429.44        72.28758
429.88          72.343
430.33        73.21857
430.77        74.43531
431.22        74.64617
431.66        73.89179
432.11         73.1768
432.56        72.79202
433.00        72.88123
433.45        73.56976
433.89        74.23048
434.34        74.10164
434.78        75.66927
435.23        74.37177
435.67        72.17957
436.12        73.10725
436.57        73.27447
437.01        73.91604
437.46        74.16941
437.90        73.84009
438.35        73.42129
438.79        73.29524
439.24        73.26501
439.68        73.40247
440.13         73.9072
440.57        74.63254
441.02        74.63634
441.46        74.06948
441.91        74.57507
442.35        75.72982
442.80        75.61255
443.24        74.45558
443.69        74.38996
444.13        75.34121
444.58        75.71793
445.02        75.47169
445.47        75.46868
445.91        75.73966
446.36        75.97778
446.80         76.1605
447.24        76.37307
447.69        76.59264
448.13        76.72443
448.58        76.80213
449.02        76.89311
449.47        76.97884
449.91        76.97845
450.36        76.87607
450.80        76.55291
451.25        76.15883
451.69         75.9933
452.13        76.10815
452.58        76.34552
453.02        76.60119
453.47        76.76409
453.91        76.77935
454.36        76.68823
454.80        76.51389
455.24        76.26691
455.69        75.98401
456.13        75.71377
456.58         75.5377
457.02        75.21871
457.46        74.91534
457.91        75.18284
458.35        75.74042
458.79        75.70745
459.24        75.08315
459.68        74.23954
460.13        73.50933
460.57        73.20554
461.01        73.46066
461.46        73.87678
461.90        74.37809
462.34        75.29237
462.79        74.65186
463.23        74.85545
463.68        75.18935
464.12        75.02869
464.56        74.36131
465.01        73.58681
465.45        72.90544
465.89        72.72606
466.34        72.94873
466.78        73.25971
467.22        73.54446
467.67        73.12336
468.11        72.63859
468.55         72.9114
468.99        73.27354
469.44         73.3577
469.88        72.92563
470.32        72.55424
470.77        72.34221
471.21        72.20586
471.65        72.16902
472.10        72.25579
472.54        72.38638
472.98        72.41067
473.42        72.28691
473.87        72.17127
474.31        72.03977
474.75        71.68497
475.20        71.24599
475.64         71.2636
476.08        71.68849
476.52        71.71356
476.97        71.22585
477.41        71.44012
477.85        71.42574
478.29        70.92737
478.74        71.20248
479.18        71.89738
479.62         71.6692
480.06         71.7593
480.50        71.62648
480.95        71.50796
481.39        71.43901
481.83        70.95332
482.27        70.98968
482.72        71.29457
483.16        71.15096
483.60        71.26633
484.04        71.36517
484.48        71.53827
484.93        71.55936
485.37        71.38455
485.81        71.29079
486.25        70.31245
486.69        71.79369
487.14        72.97266
487.58        71.39445
488.02        71.07042
488.46        70.48379
488.90        70.38566
489.34        71.33451
489.79        71.99094
490.23        71.62895
490.67        71.11778
491.11        70.48112
491.55        70.28675
491.99        70.48939
492.43        70.39189
492.88        70.00295
493.32        69.87189
493.76        70.02766
494.20        70.16854
494.64        70.25787
495.08        70.46229
495.52        70.70049
495.96        70.62935
496.41        70.32282
496.85        70.31345
497.29        70.45749
497.73        70.54274
498.17        69.72543
498.61        69.54166
499.05        69.73129
499.49        69.91591
499.93        69.80589
500.37        69.85863
500.82        69.98441
501.26        70.07623
501.70        70.11224
502.14        70.10948
502.58          70.104
503.02        70.10811
503.46        70.21127
503.90        70.33525
504.34        70.43873
504.78        70.43186
505.22        70.29956
505.66        70.03242
506.10        69.74152
506.54        69.67426
506.98        69.77799
507.42        69.91252
507.86        69.76447
508.30        69.61276
508.74        69.80624
509.18        69.81719
509.62        69.76405
510.06        69.70975
510.50        69.66449
510.94        69.59836
511.38        69.53209
511.82        69.51369
512.26        69.54989
512.70        69.63254
513.14        69.73276
513.58        69.79836
514.02        69.81603
514.46        69.80009
514.90        69.77323
515.34        69.77311
515.78        69.80799
516.22        69.86145
516.66        69.91599
517.10        69.94533
517.54        69.94197
517.98        69.91811
518.42        69.87914
518.86        69.83203
519.30        69.78358
519.74        69.73303
520.18        69.69333
520.62        69.68363
521.06        69.70801
521.50        69.76443
521.93        69.83777
522.37        69.88062
522.81        69.88905
523.25        69.86555
523.69        69.83327
524.13        69.83128
524.57        69.86289
525.01        69.91167
525.45        69.93948
525.89        69.88589
526.32        69.73611
526.76        69.53574
527.20        69.32497
527.64        69.17159
528.08        69.09563
528.52        69.07523
528.96        69.09858
529.40        69.14577
529.83        69.20041
530.27        69.27388
530.71        69.33556
531.15        69.34523
531.59        69.29726
532.03        69.19695
532.46        69.07104
532.90        69.01208
533.34        69.02506
533.78        69.05164
534.22        69.05763
534.66        69.06845
535.09        69.02673
535.53        68.80541
535.97        68.46782
536.41        68.28076
536.85        68.27552
537.28        68.31945
537.72        68.39476
538.16        68.52064
538.60        68.67468
539.04        68.84801
539.47        68.98589
539.91        69.04948
540.35        69.01801
540.79        68.90823
541.22        68.76701
541.66        68.69609
542.10           68.71
542.54        68.77938
542.97        68.85547
543.41        68.89268
543.85        68.86658
544.29        68.80763
544.72        68.71947
545.16        68.64693
545.60        68.59477
546.04         68.5613
546.47        68.56877
546.91        68.66679
547.35        68.85186
547.79        69.04603
548.22        69.20943
548.66        69.40242
549.10        69.61475
549.53        69.52055
549.97        69.19962
550.41         68.9126
550.84        68.78023
551.28        68.78643
551.72        68.84487
552.15        68.95644
552.59        69.18348
553.03        68.52404
553.46        69.04858
553.90        68.96564
554.34         68.8805
554.77        68.79258
555.21        68.75263
555.65        68.78795
556.08        68.86992
556.52        68.95327
556.96        68.99872
557.39        69.09591
557.83        69.17954
558.27        69.00064
558.70        68.49168
559.14        68.26336
559.57        68.29948
560.01        68.33502
560.45        68.36942
560.88        68.60786
561.32        68.97117
561.75         69.1414
562.19        69.11375
562.63        68.90553
563.06        68.64227
563.50        68.70633
563.93        68.97455
564.37        69.07702
564.80        69.00117
565.24        68.78721
565.68        68.36256
566.11        69.03554
566.55        68.34634
566.98         68.2875
567.42        68.21272
567.85        68.33881
568.29        68.66711
568.72         68.9049
569.16        69.20477
569.60        69.60186
570.03        69.43298
570.47        69.65088
570.90         70.1384
571.34        69.13358
571.77        69.68542
572.21        70.21114
572.64        69.82912
573.08         70.6357
573.51        69.45606
573.95        69.34081
574.38        69.64889
574.82        70.05663
