SpectraSmart Spectrum 2.9.0.0
--------- Device Information -----------
Spectrum Name :  反射率_0
Saving Time :  2024/04/26 23:20:44
Spectro-Module Model Name : SE2030-DUVN
Spectro-Module Serial Number : OS361AC55029948
Wavelength Start : 200
Wavelength End : 1025
Wavelength Unit : Wavelength(nm)
Spectrum Unit : Reflectance(%)
-----------Spectrum Setting ------------
Integration Time : 20ms
Average : 10
Boxcar : 0
Background removal :  enabled
linearity correction :  enabled
SC :  disabled
Intensity correction :  disabled
DWT denoise :  enabled
savitzky-golay :  disabled
FFT :  disabled
Running average :  disabled
Kalman :  disabled
High pass :  disabled
---------------BEGIN--------------------
Wavelength(nm)             Reflectance(%)
200.29               0
200.75        41.30061
201.21        41.39751
201.67        41.97364
202.13        41.85235
202.58        40.76253
203.04        39.41025
203.50        37.93206
203.96        36.83262
204.42        36.72913
204.88        37.15987
205.34        39.00661
205.80        43.63377
206.26        49.94753
206.72        56.12787
207.18         60.0507
207.64        60.10062
208.10        56.23716
208.55        48.50713
209.01        36.01259
209.47        25.19968
209.93        22.86575
210.39        26.32112
210.85        31.13125
211.31        35.21129
211.77        39.60094
212.23        47.63768
212.69        67.92809
213.14        110.1104
213.60        122.3506
214.06        102.3465
214.52          84.562
214.98        74.73586
215.44        68.44386
215.90        62.37036
216.36        56.66429
216.81        51.92377
217.27        48.58276
217.73        47.27749
218.19        47.30784
218.65        46.14941
219.11         43.8581
219.57        41.53639
220.02        41.61698
220.48        46.60447
220.94        57.00768
221.40        74.73716
221.86        97.95635
222.32         108.016
222.77        92.75056
223.23        66.49996
223.69        44.24321
224.15        33.52702
224.61        31.48632
225.06        33.56936
225.52        36.84908
225.98        38.50678
226.44        38.18378
226.90        36.91592
227.36        35.25272
227.81        33.97986
228.27        33.47636
228.73        33.28204
229.19        33.15704
229.65        32.90035
230.10        32.48137
230.56        32.04438
231.02        31.75966
231.48        31.86116
231.93        32.27756
232.39         32.9724
232.85        33.66013
233.31         34.0947
233.77        34.22861
234.22        34.17822
234.68        33.99936
235.14         33.9361
235.60        34.06575
236.05        34.36322
236.51        34.70404
236.97        34.78559
237.43        34.53952
237.88        34.13316
238.34        33.86307
238.80        34.39478
239.26        36.06398
239.71        39.20249
240.17        43.58876
240.63         48.3161
241.08        52.57332
241.54        55.71418
242.00        58.58786
242.46        63.77456
242.91         73.5863
243.37        89.42293
243.83        111.4807
244.28        129.2059
244.74        127.7723
245.20        108.2043
245.66        85.55984
246.11        72.73534
246.57        70.02417
247.03        73.06085
247.48         77.9636
247.94        78.12552
248.40        73.57493
248.85        68.20432
249.31        63.70459
249.77        59.96017
250.22        56.25525
250.68        51.37426
251.14         46.0684
251.59         44.1124
252.05        47.43302
252.51        54.38127
252.96        59.96826
253.42        59.96651
253.88        55.18583
254.33        47.73518
254.79        41.66745
255.25        40.16656
255.70        42.76013
256.16        47.87505
256.62        52.29973
257.07        51.51116
257.53        46.84354
257.99        41.32418
258.44        37.04752
258.90        35.76217
259.35        36.56506
259.81        38.51578
260.27        40.52211
260.72        41.31161
261.18        40.87873
261.63        39.61635
262.09         38.2393
262.55        37.12402
263.00        36.27159
263.46        35.63664
263.91        34.88779
264.37        33.81363
264.83        32.45329
265.28        30.95298
265.74        29.75512
266.19        29.20267
266.65        29.32868
267.11        29.89084
267.56        30.53639
268.02        30.69618
268.47        30.22341
268.93        29.30989
269.38        28.15905
269.84        27.13086
270.30        26.32619
270.75        25.63164
271.21        25.02569
271.66        24.44012
272.12        23.84572
272.57        23.27022
273.03         22.6852
273.48         22.0297
273.94        21.33393
274.39        20.59663
274.85        19.89807
275.31        19.25834
275.76        18.67824
276.22        18.17532
276.67        17.72855
277.13        17.34819
277.58        17.00127
278.04        16.68383
278.49        16.36557
278.95         16.0777
279.40        15.78227
279.86        15.51147
280.31        15.18916
280.77        14.76371
281.22        14.23018
281.68        13.65295
282.13        13.11489
282.59        12.76229
283.04        12.59457
283.50        12.55951
283.95        12.57065
284.41        12.48774
284.86        12.27877
285.32        12.00636
285.77        11.71127
286.22         11.4754
286.68        11.32178
287.13        11.20887
287.59        11.13908
288.04        11.09832
288.50        11.08563
288.95          11.087
289.41        11.09361
289.86         11.0599
290.32        10.99267
290.77        10.89939
291.22        10.79776
291.68        10.71147
292.13        10.64739
292.59        10.60634
293.04        10.60068
293.50        10.66229
293.95        10.78589
294.40        10.96298
294.86        11.16066
295.31        11.32178
295.77        11.44102
296.22        11.54351
296.68        11.65544
297.13        11.81377
297.58        12.03519
298.04        12.30441
298.49        12.63852
298.95        13.07166
299.40        13.59086
299.85        14.17945
300.31        14.76169
300.76        15.22455
301.21        15.55113
301.67        15.79279
302.12         16.0196
302.58        16.37278
303.03        16.87245
303.48        17.48784
303.94        18.17687
304.39        18.86415
304.84        19.53414
305.30        20.22254
305.75        20.92871
306.20        21.68202
306.66        22.49405
307.11        23.34628
307.57        24.23738
308.02        25.14003
308.47        26.05824
308.93        27.00512
309.38        28.00261
309.83        29.12575
310.29        30.39211
310.74        31.78425
311.19        33.23282
311.65        34.60072
312.10        35.83849
312.55        36.97029
313.00        38.09632
313.46        39.39548
313.91        40.90751
314.36        42.59871
314.82        44.35721
315.27        45.98777
315.72        47.41557
316.18        48.69843
316.63        49.92616
317.08        51.28263
317.53        52.81892
317.99        54.46476
318.44        56.13737
318.89        57.67863
319.35        59.02945
319.80        60.23489
320.25        61.34512
320.70        62.44782
321.16        63.57618
321.61          64.728
322.06        65.87145
322.51        66.95856
322.97        67.96203
323.42        68.89639
323.87        69.82052
324.32        70.85054
324.78        71.98009
325.23        73.21926
325.68        74.37501
326.13        75.12777
326.59        75.40178
327.04        75.31363
327.49        75.11666
327.94         75.2448
328.39        75.81774
328.85        76.70085
329.30        77.76765
329.75        78.58804
330.20        79.01482
330.66          79.153
331.11        79.18894
331.56        79.36999
332.01        79.78484
332.46        80.33365
332.92        80.89993
333.37        81.41767
333.82        81.79972
334.27        82.11375
334.72        82.37952
335.17        82.61052
335.63        82.82529
336.08        83.06329
336.53        83.37662
336.98        83.88991
337.43        84.61668
337.88        85.49451
338.34        86.41882
338.79        87.29977
339.24        88.03168
339.69        88.63453
340.14        89.03566
340.59        89.13925
341.05         88.9886
341.50        88.63052
341.95        88.27983
342.40        88.26073
342.85        88.65468
343.30        89.38474
343.75        90.28527
344.20        91.06488
344.66        91.61897
345.11        91.99879
345.56         92.2762
346.01        92.57722
346.46        92.94432
346.91        93.34377
347.36        93.69523
347.81        93.89428
348.26        93.92918
348.72        93.83345
349.17        93.76392
349.62        93.99212
350.07        94.54977
350.52        95.35816
350.97        96.11173
351.42        96.31709
351.87        95.89307
352.32        95.01872
352.77        94.08324
353.22        93.65959
353.67        93.87084
354.13         94.5386
354.58        95.36573
355.03         95.8224
355.48        95.74823
355.93        95.29797
356.38        94.72324
356.83        94.40325
357.28        94.41502
357.73        94.60665
358.18        94.76165
358.63        94.55042
359.08         93.9026
359.53        92.96526
359.98        91.92669
360.43        91.04137
360.88        90.38311
361.33        89.88007
361.78        89.46041
362.23        89.01462
362.68        88.51293
363.13        88.00292
363.58        87.51665
364.03         87.0894
364.48        86.72044
364.93        86.37411
365.38        86.02081
365.83        85.63088
366.28        85.19453
366.73        84.72266
367.18        84.22194
367.63        83.69907
368.08        83.16193
368.53        82.61718
368.98        82.07471
369.43        81.54578
369.88        81.03666
370.33        80.54807
370.78        80.08634
371.23         79.6648
371.68        79.28059
372.13        78.91789
372.58        78.56111
373.03        78.18507
373.48        77.77361
373.93        77.32995
374.38        76.83608
374.83        76.26897
375.28        75.64496
375.72        74.97759
376.17        74.36366
376.62        73.85535
377.07        73.47646
377.52        73.21753
377.97        73.05934
378.42        72.97456
378.87        72.93056
379.32        72.89008
379.77         72.8519
380.22        72.82092
380.67        72.77631
381.11         72.7341
381.56        72.53893
382.01        72.03207
382.46        71.24178
382.91        70.28871
383.36         69.4118
383.81        68.92522
384.26         68.8673
384.71        69.12443
385.15        69.53655
385.60        69.81173
386.05        69.84465
386.50        69.70493
386.95        69.41186
387.40        69.01022
387.85        68.54839
388.29        67.98318
388.74        67.47655
389.19        67.08241
389.64        66.81129
390.09        66.64415
390.54        66.53468
390.98        66.38145
391.43        66.19396
391.88         65.9905
392.33        65.79482
392.78        65.62444
393.23        65.48124
393.67        65.36484
394.12        65.31717
394.57        65.17229
395.02        64.96921
395.47        64.93815
395.91        65.04374
396.36        64.98173
396.81        64.75778
397.26        64.54491
397.71        64.35123
398.15        64.13654
398.60        63.98666
399.05        63.73633
399.50        63.46583
399.95        63.57291
400.39        63.94196
400.84        63.84989
401.29        63.32225
401.74        63.00479
402.18        62.94408
402.63        62.74051
403.08        62.45325
403.53        62.33355
403.97        62.38229
404.42        62.52628
404.87        62.67269
405.32        62.62874
405.76        62.35437
406.21        62.06686
406.66        61.81801
407.11        61.45297
407.55        61.16188
408.00        61.40199
408.45        62.07194
408.90        62.62664
409.34        62.81004
409.79        62.43946
410.24        61.73212
410.68        61.34713
411.13        61.36974
411.58        61.42177
412.03        61.41299
412.47        61.37856
412.92        61.27229
413.37        61.11943
413.81        60.97224
414.26        60.96263
414.71        61.08753
415.15        61.33042
415.60        61.60028
416.05         61.8082
416.49        61.92161
416.94        61.95445
417.39        61.95089
417.83        61.97071
418.28         62.0351
418.73        62.11889
419.17        62.20682
419.62        62.27962
420.07        62.32306
420.51        62.32965
420.96        62.32487
421.41        62.28836
421.85        62.20744
422.30        62.17125
422.74        62.11884
423.19        62.02897
423.64        61.88728
424.08        61.76434
424.53        61.72656
424.98        61.81798
425.42        62.07813
425.87        62.59111
426.31        63.17311
426.76        63.07207
427.21        62.44196
427.65        62.33884
428.10        62.71674
428.54        62.80608
428.99        62.65473
429.44        62.36641
429.88        62.16447
430.33        62.89427
430.77        64.12608
431.22        64.50589
431.66        63.99905
432.11        63.46687
432.56        63.19199
433.00        63.19153
433.45        63.53608
433.89        64.16677
434.34        64.58585
434.78        64.84296
435.23         64.4434
435.67        62.73185
436.12        63.47509
436.57         63.5133
437.01        63.76371
437.46        63.95086
437.90        64.14098
438.35        63.13021
438.79        63.64066
439.24          63.566
439.68         63.6581
440.13        64.00926
440.57        64.58169
441.02        64.65786
441.46        64.33087
441.91        65.04829
442.35        66.31552
442.80        66.12328
443.24        64.78521
443.69        64.70023
444.13        65.78783
444.58        66.24394
445.02        65.97547
445.47        65.84647
445.91        65.94697
446.36        66.12034
446.80        66.35776
447.24         66.6713
447.69        66.98608
448.13        67.10372
448.58        67.06929
449.02        67.13426
449.47        67.28758
449.91        67.26601
450.36        67.09509
450.80        66.91017
451.25        66.79413
451.69         66.7536
452.13        66.81439
452.58        66.96264
453.02        67.13493
453.47        67.23221
453.91        67.21843
454.36        67.13168
454.80        66.99352
455.24        66.77303
455.69        66.49038
456.13        66.27641
456.58        66.21918
457.02          65.744
457.46         65.5937
457.91        65.82153
458.35        66.33736
458.79        66.28781
459.24        65.68183
459.68        64.86373
460.13         64.1213
460.57        63.82661
461.01        64.13495
461.46        64.36869
461.90        64.73582
462.34        65.91048
462.79        65.66618
463.23        65.65005
463.68        65.52655
464.12        65.50414
464.56        65.51366
465.01        64.82327
465.45        63.71229
465.89        63.34902
466.34        63.68252
466.78        64.03899
467.22        64.27068
467.67        63.99949
468.11        63.72029
468.55        63.67308
468.99         63.9509
469.44        63.94789
469.88        63.66479
470.32        63.48545
470.77        63.43724
471.21        63.37968
471.65        63.30651
472.10        63.26592
472.54        63.24868
472.98        63.22298
473.42         63.1702
473.87        63.18413
474.31        63.18728
474.75        62.92487
475.20        62.50994
475.64        62.41299
476.08        62.61464
476.52         62.5724
476.97        62.24814
477.41        62.21885
477.85        62.21516
478.29         62.0006
478.74         62.7398
479.18         62.9245
479.62        62.89968
480.06        62.85455
480.50        62.76379
480.95        62.58222
481.39        62.38997
481.83        62.13309
482.27        61.68031
482.72        62.57702
483.16        62.29972
483.60        62.20549
484.04        62.55298
484.48        62.76377
484.93        62.93799
485.37        62.50698
485.81        62.11123
486.25        61.33211
486.69        61.99437
487.14        62.88301
487.58        62.06882
488.02        62.60315
488.46        61.93171
488.90        61.66441
489.34        62.91274
489.79        63.58657
490.23        63.03775
490.67        62.40194
491.11        61.68072
491.55        61.43861
491.99        61.63688
492.43        61.58132
492.88        61.27613
493.32        61.27385
493.76        61.54537
494.20        61.73534
494.64        61.80511
495.08        61.81502
495.52        61.78239
495.96        61.83973
496.41        61.96436
496.85        61.91279
497.29        61.63447
497.73        61.70876
498.17        61.35537
498.61        61.25695
499.05        61.19638
499.49        61.30625
499.93         61.3355
500.37        61.48579
500.82        61.63435
501.26        61.60692
501.70        61.44529
502.14        61.43498
502.58        61.59599
503.02         61.7095
503.46        61.77018
503.90        61.92794
504.34        62.11921
504.78        62.14754
505.22        61.98019
505.66        61.71641
506.10        61.46859
506.54        61.25567
506.98        61.08338
507.42        61.41207
507.86        61.53748
508.30        61.35684
508.74        61.56973
509.18        61.47805
509.62        61.38433
510.06        61.31804
510.50        61.30832
510.94        61.31941
511.38        61.33681
511.82        61.36587
512.26        61.40119
512.70        61.44734
513.14        61.50021
513.58        61.55248
514.02        61.60463
514.46        61.63752
514.90        61.64962
515.34        61.69073
515.78        61.76779
516.22        61.67839
516.66         61.7449
517.10        61.67932
517.54         61.5816
517.98        61.46007
518.42        61.32816
518.86        61.19875
519.30        61.08119
519.74        60.97861
520.18        60.91473
520.62        60.92297
521.06        61.00581
521.50         61.1554
521.93        61.32796
522.37        61.43051
522.81        61.44925
523.25         61.4017
523.69        61.34075
524.13        61.35522
524.57        61.45741
525.01        61.60688
525.45         61.7483
525.89        61.79385
526.32         61.7149
526.76        61.56477
527.20        61.36564
527.64        61.15632
528.08        60.96187
528.52        60.77541
528.96         60.6353
529.40        60.59896
529.83        60.66863
530.27        60.83665
530.71        61.02939
531.15        61.13233
531.59        61.11755
532.03        61.00773
532.46        60.86289
532.90        60.82493
533.34        60.90925
533.78        61.03776
534.22        61.13993
534.66        61.18534
535.09        61.11049
535.53         60.8147
535.97        60.39858
536.41         60.1737
536.85        60.18477
537.28        60.29013
537.72        60.43999
538.16        60.59931
538.60        60.73259
539.04        60.84592
539.47        60.91888
539.91        60.96029
540.35        60.95825
540.79        60.91022
541.22        60.82743
541.66        60.75128
542.10        60.69095
542.54        60.65108
542.97        60.61533
543.41          60.582
543.85        60.53814
544.29          60.489
544.72        60.44961
545.16        60.45681
545.60        60.49783
546.04        60.63207
546.47        60.80428
546.91        60.76885
547.35        60.58357
547.79        60.60775
548.22        60.81229
548.66         60.8843
549.10        60.85929
549.53        60.80668
549.97        60.75436
550.41        60.61411
550.84         60.4621
551.28        60.42917
551.72        60.46849
552.15        60.56464
552.59        60.77929
553.03        60.28857
553.46        60.78978
553.90        60.76092
554.34        60.69454
554.77        60.62841
555.21        60.59327
555.65        60.58931
556.08        60.82542
556.52        60.88646
556.96        60.83204
557.39        60.90829
557.83        61.06551
558.27        60.90163
558.70        60.46608
559.14        60.29066
559.57        60.36766
560.01        60.38197
560.45        60.33108
560.88        60.42148
561.32        60.63523
561.75        60.76167
562.19        60.79578
562.63        60.75215
563.06        60.66646
563.50        60.66751
563.93        60.68934
564.37        60.68956
564.80        60.67183
565.24        60.48772
565.68        60.06306
566.11        60.64228
566.55        60.06802
566.98        60.00806
567.42        59.92059
567.85        60.12385
568.29        60.56377
568.72        60.71406
569.16        60.98199
569.60        61.00018
570.03        61.05924
570.47        61.19972
570.90        61.52184
571.34        60.65661
571.77        61.04564
572.21        61.26962
572.64        60.60183
573.08        61.21413
573.51        60.73465
573.95        60.72565
574.38        60.82354
574.82         60.7614
