SpectraSmart Spectrum 2.9.0.0
--------- Device Information -----------
Spectrum Name :  反射率_0
Saving Time :  2024/04/26 23:18:05
Spectro-Module Model Name : SE2030-DUVN
Spectro-Module Serial Number : OS361AC55029948
Wavelength Start : 200
Wavelength End : 1025
Wavelength Unit : Wavelength(nm)
Spectrum Unit : Reflectance(%)
-----------Spectrum Setting ------------
Integration Time : 20ms
Average : 10
Boxcar : 0
Background removal :  enabled
linearity correction :  enabled
SC :  disabled
Intensity correction :  disabled
DWT denoise :  enabled
savitzky-golay :  disabled
FFT :  disabled
Running average :  disabled
Kalman :  disabled
High pass :  disabled
---------------BEGIN--------------------
Wavelength(nm)             Reflectance(%)
200.29               0
200.75        53.35878
201.21        47.75869
201.67        43.55997
202.13        42.38583
202.58        44.11678
203.04        48.89701
203.50        56.35184
203.96        63.38361
204.42        67.27952
204.88         67.9425
205.34        65.62035
205.80        62.38343
206.26        59.49748
206.72        56.46975
207.18        54.01317
207.64        52.50787
208.10        51.74497
208.55        52.24657
209.01        53.13852
209.47        52.53798
209.93        50.41493
210.39        48.25851
210.85        47.42262
211.31        48.94156
211.77         53.7034
212.23        65.17201
212.69        94.59732
213.14        146.8081
213.60        148.5693
214.06        114.9834
214.52        91.53149
214.98        81.47057
215.44        77.83923
215.90        75.97894
216.36        75.23563
216.81        75.19621
217.27        75.86904
217.73        78.84093
218.19        82.33271
218.65        79.28827
219.11         70.2271
219.57        60.65606
220.02        55.44019
220.48          57.085
220.94         64.9677
221.40        80.26053
221.86        101.6872
222.32        113.1079
222.77        102.5255
223.23        81.55941
223.69        62.71393
224.15        52.52629
224.61        49.09119
225.06        48.90738
225.52         49.9487
225.98        50.08761
226.44        49.05469
226.90        47.56078
227.36        46.23124
227.81        45.99574
228.27        46.97323
228.73         48.3552
229.19         49.5169
229.65        49.85294
230.10        49.31588
230.56        48.30677
231.02        46.90969
231.48        45.32913
231.93        43.77663
232.39        42.43478
232.85        41.62061
233.31         41.8441
233.77        43.01337
234.22        44.93416
234.68        46.98826
235.14        48.27501
235.60        48.55178
236.05        48.10666
236.51        47.17078
236.97        46.35474
237.43        46.00601
237.88        45.98283
238.34        46.54333
238.80        48.36376
239.26         51.8018
239.71        57.65131
240.17        65.23389
240.63        72.00964
241.08         76.1814
241.54        76.79064
242.00        76.34982
242.46        81.22722
242.91        95.96563
243.37        123.2078
243.83        164.1535
244.28        200.8093
244.74        205.4108
245.20        177.5241
245.66        139.3912
246.11        111.3384
246.57        94.90897
247.03         84.1634
247.48         77.5346
247.94        74.10414
248.40        73.29167
248.85        74.77469
249.31        76.91444
249.77        77.79556
250.22          77.095
250.68        74.22658
251.14        70.07838
251.59        68.36771
252.05        70.99244
252.51         76.8306
252.96        80.60857
253.42        77.91959
253.88        70.18047
254.33        60.11595
254.79        53.26822
255.25        54.22037
255.70        62.12391
256.16        74.46986
256.62        85.74648
257.07        87.65915
257.53        81.83604
257.99        73.45815
258.44        66.37174
258.90        63.75608
259.35         64.3056
259.81        66.59669
260.27        68.94632
260.72        69.42648
261.18        68.17126
261.63        65.82519
262.09        63.56329
262.55        62.00101
263.00        61.06202
263.46        60.59689
263.91         59.9805
264.37        58.81218
264.83         57.0757
265.28        54.99975
265.74        53.23088
266.19        52.23423
266.65        52.08882
267.11        52.46516
267.56        52.90508
268.02        52.69731
268.47        51.67804
268.93        50.13859
269.38         48.3816
269.84        46.93186
270.30        45.91682
270.75        45.14631
271.21        44.56618
271.66        44.03631
272.12        43.48854
272.57        42.94914
273.03        42.31649
273.48        41.40213
273.94        40.26075
274.39        38.93729
274.85        37.67028
275.31        36.64872
275.76        35.89211
276.22        35.37765
276.67        34.98883
277.13        34.65034
277.58        34.26972
278.04        33.88438
278.49        33.45188
278.95        33.03148
279.40        32.57635
279.86        32.14269
280.31        31.63474
280.77        31.03304
281.22        30.32045
281.68        29.59382
282.13        28.94395
282.59        28.57742
283.04        28.47928
283.50        28.60292
283.95        28.80406
284.41        28.86346
284.86        28.72278
285.32        28.47565
285.77        28.21097
286.22        28.12157
286.68        28.23871
287.13        28.45372
287.59        28.70082
288.04        28.83605
288.50        28.84657
288.95        28.75844
289.41        28.62462
289.86        28.44819
290.32         28.2908
290.77        28.14651
291.22        28.07988
291.68        28.16977
292.13        28.42982
292.59        28.87452
293.04        29.47928
293.50         30.2144
293.95         31.0546
294.40        32.00639
294.86        33.07338
295.31        34.25277
295.77        35.54192
296.22        36.91048
296.68        38.34145
297.13        39.79849
297.58        41.28333
298.04        42.80975
298.49        44.38374
298.95        46.03565
299.40        47.75257
299.85        49.51978
300.31        51.32986
300.76        53.15003
301.21        54.97662
301.67        56.83256
302.12        58.66674
302.58        60.49264
303.03        62.26593
303.48        64.01106
303.94        65.78275
304.39        67.59509
304.84        69.47977
305.30         71.4405
305.75        73.38824
306.20        75.27658
306.66        77.10564
307.11        78.85251
307.57         80.5656
308.02        82.21074
308.47        83.80891
308.93        85.35457
309.38        86.84398
309.83        88.39486
310.29        90.02113
310.74        91.68741
311.19        93.25488
311.65        94.46678
312.10        95.25701
312.55        95.70309
313.00        96.03745
313.46        96.62759
313.91        97.53105
314.36        98.66936
314.82        99.82919
315.27        100.6741
315.72        101.0966
316.18        101.2361
316.63        101.2416
317.08        101.3929
317.53        101.7748
317.99        102.2945
318.44        102.8726
318.89        103.3535
319.35        103.6797
319.80        103.8989
320.25        104.0721
320.70        104.2926
321.16        104.5814
321.61        104.9489
322.06        105.2962
322.51        105.4785
322.97        105.4607
323.42        105.2956
323.87        105.1767
324.32        105.4364
324.78        106.1001
325.23        107.1474
325.68        108.2105
326.13        108.6794
326.59        108.4084
327.04        107.6081
327.49        106.7077
327.94        106.4217
328.39         106.926
328.85        107.9762
329.30        109.3122
329.75        110.2027
330.20        110.4063
330.66        110.1114
331.11        109.6567
331.56        109.5065
332.01        109.8153
332.46         110.411
332.92        111.0764
333.37        111.6222
333.82        111.9016
334.27        112.0432
334.72        112.1242
335.17        112.2406
335.63        112.4393
336.08        112.7449
336.53         113.187
336.98        113.8723
337.43        114.7929
337.88        115.8704
338.34        116.9882
338.79        118.0684
339.24         118.981
339.69        119.7488
340.14        120.2294
340.59        120.2219
341.05        119.7836
341.50        119.0115
341.95        118.2873
342.40        118.1873
342.85        118.8338
343.30        120.0596
343.75        121.5395
344.20          122.71
344.66        123.3844
345.11        123.7036
345.56        123.7993
346.01        123.9007
346.46        124.1042
346.91        124.3366
347.36         124.583
347.81        124.8502
348.26        125.1199
348.72        125.3851
349.17        125.6595
349.62        125.9862
350.07        126.3479
350.52        126.7448
350.97         126.974
351.42        126.7214
351.87        125.9763
352.32        124.8683
352.77        123.7917
353.22         123.319
353.67        123.5496
354.13        124.3067
354.58        125.2145
355.03        125.5925
355.48        125.2528
355.93        124.3904
356.38        123.3687
356.83         122.741
357.28         122.619
357.73        122.7936
358.18        122.9622
358.63        122.6554
359.08        121.7631
359.53        120.4802
359.98        119.0473
360.43        117.7907
360.88        116.8036
361.33        115.9896
361.78        115.2547
362.23        114.4613
362.68        113.5796
363.13        112.6788
363.58        111.8136
364.03         111.047
364.48        110.3793
364.93         109.756
365.38        109.1371
365.83        108.4785
366.28        107.7673
366.73        107.0296
367.18        106.2544
367.63        105.4167
368.08        104.5287
368.53        103.6092
368.98        102.7293
369.43        101.9984
369.88        101.4352
370.33        101.0026
370.78        100.6245
371.23        100.1775
371.68        99.61594
372.13        98.95719
372.58        98.24004
373.03        97.52965
373.48        96.84135
373.93        96.15562
374.38        95.42999
374.83        94.60722
375.28        93.69345
375.72        92.70988
376.17        91.79491
376.62         91.0333
377.07        90.45657
377.52          90.058
377.97        89.75779
378.42        89.43665
378.87           89.06
379.32        88.62134
379.77        88.24604
380.22        88.12396
380.67        88.25246
381.11        88.58792
381.56        88.79041
382.01         88.3997
382.46        87.36906
382.91         85.9245
383.36        84.48544
383.81        83.61735
384.26        83.41193
384.71        83.67867
385.15        84.16093
385.60        84.40402
386.05        84.26109
386.50        83.86436
386.95        83.30634
387.40        82.73557
387.85        82.22163
388.29        81.66727
388.74        81.19632
389.19        80.77625
389.64        80.40466
390.09        80.09801
390.54          79.838
390.98        79.56481
391.43        79.29768
391.88        79.02424
392.33        78.77813
392.78        78.53327
393.23        78.27346
393.67        78.17841
394.12        78.21675
394.57        77.69136
395.02        76.82603
395.47        76.77743
395.91        77.41928
396.36         77.4847
396.81        76.91832
397.26        76.43111
397.71        76.11205
398.15        75.77103
398.60        75.52168
399.05        75.31953
399.50         75.1412
399.95        75.06144
400.39        75.05136
400.84        74.78895
401.29        74.33984
401.74        74.21841
402.18        74.35106
402.63        74.01221
403.08        73.33846
403.53        73.08704
403.97        73.28368
404.42        73.52357
404.87        73.68745
405.32          73.698
405.76        73.49959
406.21        73.28336
406.66        73.05067
407.11        72.58146
407.55        72.07873
408.00         71.9837
408.45        72.28455
408.90        72.75222
409.34         73.0836
409.79        72.64333
410.24        71.68912
410.68        71.28004
411.13        71.49891
411.58         71.7344
412.03        71.81588
412.47        71.75794
412.92        71.49314
413.37        71.06179
413.81        70.61992
414.26        70.46087
414.71         70.6069
415.15         71.0046
415.60        71.47691
416.05        71.78808
416.49        71.85632
416.94        71.73784
417.39        71.54498
417.83        71.43152
418.28         71.4558
418.73        71.58379
419.17        71.74084
419.62        71.81209
420.07        71.74986
420.51         71.5596
420.96        71.39363
421.41        71.32643
421.85        71.33257
422.30        71.71851
422.74        72.17171
423.19        71.71019
423.64        70.56747
424.08        70.32516
424.53        70.97585
424.98        71.20642
425.42        70.97341
425.87        71.10675
426.31         71.5244
426.76        71.54689
427.21        71.19481
427.65        70.86151
428.10        70.64578
428.54        70.59972
428.99        70.78082
429.44          70.913
429.88        71.06879
430.33        71.74474
430.77        72.61107
431.22        73.09802
431.66        73.05286
432.11         72.3343
432.56        71.29982
433.00        71.05561
433.45        71.83298
433.89        72.71851
434.34        72.88938
434.78         74.0991
435.23        73.04749
435.67        70.61346
436.12        71.42535
436.57        71.44263
437.01        71.94894
437.46        72.26262
437.90        72.48524
438.35        71.26803
438.79         72.0412
439.24        71.97713
439.68        72.04902
440.13        72.20792
440.57        72.49866
441.02        72.74761
441.46        72.85849
441.91         73.3266
442.35        73.85103
442.80          73.478
443.24        72.51717
443.69         72.6966
444.13        73.85548
444.58        74.47757
445.02        74.40192
445.47        74.21854
445.91        74.07397
446.36        74.11275
446.80         74.3599
447.24        74.65363
447.69        74.90224
448.13        75.03825
448.58        75.04752
449.02         74.9284
449.47        74.76326
449.91         74.6485
450.36        74.63824
450.80        74.68124
451.25        74.77137
451.69        74.83859
452.13        74.88027
452.58        74.90543
453.02        74.92415
453.47        74.95863
453.91         75.0006
454.36        75.04562
454.80        75.04154
455.24        74.87292
455.69        74.54507
456.13        74.17469
456.58        73.88733
457.02        73.46825
457.46        73.11082
457.91        73.43002
458.35        74.10979
458.79        74.13451
459.24        73.49424
459.68        72.64372
460.13        71.90596
460.57        71.57132
461.01         71.7831
461.46        72.04462
461.90        72.48033
462.34        73.42805
462.79        73.41277
463.23        73.67248
463.68        73.68873
464.12        73.47841
464.56        73.02142
465.01        72.27263
465.45        71.44462
465.89        71.15412
466.34        71.33502
466.78        71.64882
467.22        71.98209
467.67        71.56471
468.11        71.37991
468.55        71.35123
468.99        71.68593
469.44        71.67884
469.88        71.32963
470.32        71.05903
470.77        70.92345
471.21        70.83028
471.65        70.77934
472.10        70.80154
472.54        70.87049
472.98         70.8951
473.42        70.84081
473.87        70.91481
474.31        71.00674
474.75         70.6121
475.20        69.95386
475.64        69.94331
476.08         70.4767
476.52        70.59598
476.97        70.25813
477.41        70.00925
477.85         69.9418
478.29         69.9205
478.74        69.98001
479.18        70.19024
479.62        70.47887
480.06        70.58519
480.50        70.44292
480.95        70.36804
481.39        70.42825
481.83        69.95617
482.27         69.7477
482.72         70.3172
483.16        69.85853
483.60        69.86726
484.04        70.02447
484.48        70.28955
484.93        70.53971
485.37        70.16116
485.81        69.89252
486.25        69.08295
486.69         69.6527
487.14         70.4144
487.58        70.03464
488.02        70.59545
488.46        68.81638
488.90        68.89005
489.34        70.44415
489.79        71.31864
490.23        70.44095
490.67        69.73179
491.11        69.22851
491.55        69.25916
491.99         69.7179
492.43        69.78558
492.88        69.42962
493.32        69.28032
493.76        69.39973
494.20         69.4925
494.64        69.53718
495.08        69.70707
495.52        69.89178
495.96         69.7099
496.41        69.23903
496.85        69.01232
497.29        68.96779
497.73        69.05193
498.17        68.43002
498.61        68.42857
499.05         68.7355
499.49         69.0657
499.93         69.0768
500.37        69.05196
500.82        68.98527
501.26        69.01402
501.70        69.12547
502.14        69.44369
502.58        69.43748
503.02         69.5582
503.46        69.64247
503.90        69.67864
504.34        69.65402
504.78        69.56534
505.22        69.41637
505.66        69.24371
506.10        69.12051
506.54        68.97301
506.98        68.77013
507.42        69.01959
507.86        69.19913
508.30        68.69411
508.74        69.15136
509.18        69.10856
509.62        69.08527
510.06        69.01524
510.50         68.9178
510.94         68.7795
511.38        68.63011
511.82        68.56867
512.26        68.61037
512.70        68.73095
513.14         68.8927
513.58        69.03047
514.02        69.11943
514.46        69.17164
514.90        69.19588
515.34        69.20936
515.78        69.21697
516.22        69.20824
516.66        69.17931
517.10        69.12801
517.54        69.05782
517.98          68.979
518.42        68.90079
518.86        68.83364
519.30        68.78314
519.74        68.74831
520.18        68.73371
520.62        68.74315
521.06         68.7775
521.50        68.84022
521.93        68.92023
522.37        68.97762
522.81        69.01273
523.25        69.02537
523.69        69.04307
524.13        69.11455
524.57        69.23809
525.01          69.384
525.45        69.50161
525.89        69.51018
526.32         69.3876
526.76        69.19055
527.20        68.94633
527.64        68.70365
528.08        68.49108
528.52        68.29822
528.96        68.16969
529.40        68.17177
529.83        68.30054
530.27        68.54026
530.71        68.79009
531.15        68.89362
531.59        68.81719
532.03        68.60255
532.46        68.33374
532.90        68.19611
533.34        68.22014
533.78        68.31278
534.22        68.40984
534.66         68.4977
535.09        68.50105
535.53        68.29649
535.97         67.9554
536.41        67.76454
536.85        67.75936
537.28        67.79464
537.72        67.85291
538.16        67.95982
538.60        68.09604
539.04        68.25677
539.47        68.38807
539.91        68.44939
540.35        68.42067
540.79        68.31843
541.22        68.19561
541.66        68.16279
542.10        68.23309
542.54        68.37148
542.97         68.5118
543.41        68.58213
543.85        68.54825
544.29        68.44997
544.72        68.31203
545.16        68.18961
545.60        68.09063
546.04        68.10202
546.47        68.06302
546.91         68.1067
547.35        68.18129
547.79        68.22947
548.22         68.2616
548.66        68.42004
549.10        68.70219
549.53        68.74311
549.97        68.56989
550.41        68.35746
550.84        68.18671
551.28        68.11633
551.72        68.11425
552.15        68.09978
552.59        68.12199
553.03        67.85701
553.46        68.16629
553.90        68.19655
554.34        68.19029
554.77        68.19169
555.21        68.21939
555.65        68.32573
556.08        68.48415
556.52        68.62396
556.96        68.69454
557.39        68.80355
557.83        68.89355
558.27        68.60239
558.70        68.03092
559.14        67.78278
559.57         67.8595
560.01        67.79488
560.45        67.63087
560.88        67.83264
561.32        68.29538
561.75        68.47218
562.19        68.37444
562.63        68.15899
563.06        67.97046
563.50        68.20998
563.93        68.68764
564.37        68.82894
564.80         68.6279
565.24        68.31746
565.68        67.84588
566.11        68.43364
566.55        67.66529
566.98        67.54597
567.42         67.4664
567.85        67.70181
568.29        68.15893
568.72        68.41829
569.16        68.54323
569.60        68.53546
570.03         68.6282
570.47        68.70153
570.90        68.90041
571.34        68.13528
571.77        68.80632
572.21        68.95305
572.64         68.8513
573.08        69.31153
573.51        68.44144
573.95        68.32273
574.38        68.60623
574.82        68.89587
