SpectraSmart Spectrum 2.9.0.0
--------- Device Information -----------
Spectrum Name :  反射率_0
Saving Time :  2024/04/26 23:22:50
Spectro-Module Model Name : SE2030-DUVN
Spectro-Module Serial Number : OS361AC55029948
Wavelength Start : 200
Wavelength End : 1025
Wavelength Unit : Wavelength(nm)
Spectrum Unit : Reflectance(%)
-----------Spectrum Setting ------------
Integration Time : 20ms
Average : 10
Boxcar : 0
Background removal :  enabled
linearity correction :  enabled
SC :  disabled
Intensity correction :  disabled
DWT denoise :  enabled
savitzky-golay :  disabled
FFT :  disabled
Running average :  disabled
Kalman :  disabled
High pass :  disabled
---------------BEGIN--------------------
Wavelength(nm)             Reflectance(%)
200.29               0
200.75        65.39816
201.21        58.42017
201.67        52.77045
202.13        50.58678
202.58        51.79157
203.04        56.51084
203.50        63.99393
203.96        70.25116
204.42        72.23622
204.88        69.91432
205.34         65.5196
205.80        64.33878
206.26        67.30008
206.72        71.60605
207.18        74.86765
207.64        75.12726
208.10        72.15115
208.55        66.65557
209.01        57.66354
209.47        49.28314
209.93        46.69845
210.39        48.37371
210.85        51.65137
211.31        55.59511
211.77        61.48027
212.23         73.6408
212.69        104.5713
213.14        163.9203
213.60        174.2409
214.06        141.6322
214.52        115.7309
214.98        102.4828
215.44        95.00785
215.90        88.41364
216.36        82.84579
216.81        79.28364
217.27        78.20872
217.73        81.00054
218.19        86.08958
218.65        85.56694
219.11        78.55174
219.57        70.45419
220.02         66.5871
220.48         70.6034
220.94        82.40155
221.40        103.4601
221.86        132.8627
222.32        150.6859
222.77        140.4053
223.23         116.217
223.69          92.355
224.15        76.26639
224.61        66.83084
225.06        60.65115
225.52        57.47585
225.98        56.94981
226.44        58.39517
226.90        61.67327
227.36        65.20358
227.81        66.15332
228.27        64.26305
228.73        60.50425
229.19        56.86456
229.65        55.66468
230.10        57.00116
230.56        60.06956
231.02        63.37059
231.48          64.558
231.93        63.18245
232.39        60.51052
232.85        57.84475
233.31        56.88349
233.77        57.78937
234.22        59.91656
234.68        62.37219
235.14        63.88295
235.60        64.06133
236.05        63.37756
236.51        62.15963
236.97        61.19913
237.43        60.92908
237.88        61.17299
238.34        61.96333
238.80         63.6779
239.26        66.55379
239.71        71.34534
240.17        77.61824
240.63        83.91669
241.08        89.09756
241.54        92.11527
242.00        94.57913
242.46        100.8627
242.91        114.6918
243.37        138.4422
243.83        173.2168
244.28         204.375
244.74        208.6349
245.20        184.6724
245.66        153.6351
246.11        135.4692
246.57        131.1686
247.03        135.0078
247.48         139.351
247.94        132.7841
248.40        117.9596
248.85        102.7215
249.31        91.89542
249.77        86.95042
250.22        86.73035
250.68        89.73941
251.14        95.33907
251.59        100.5229
252.05        102.6926
252.51        103.0197
252.96        100.9229
253.42        96.73194
253.88          91.266
254.33        84.83902
254.79        80.34581
255.25        79.71168
255.70        82.29086
256.16         86.9866
256.62        91.11517
257.07        90.73362
257.53        87.05524
257.99        82.43993
258.44        78.29649
258.90        76.28064
259.35        75.46653
259.81        75.46384
260.27        75.59676
260.72        75.22873
261.18         74.5327
261.63        73.39486
262.09        72.33289
262.55        71.28119
263.00         70.1365
263.46        69.08769
263.91        67.81466
264.37        66.34039
264.83        64.67546
265.28        62.86696
265.74        61.33552
266.19        60.22432
266.65        59.60535
267.11        59.27575
267.56        59.01709
268.02        58.50243
268.47        57.63942
268.93        56.56518
269.38        55.35095
269.84        54.18174
270.30        53.09717
270.75        52.03322
271.21        51.04815
271.66        50.15495
272.12        49.35759
272.57        48.63734
273.03        47.92463
273.48        47.08247
273.94        46.15269
274.39        45.13551
274.85        44.19714
275.31        43.40976
275.76        42.74984
276.22        42.21765
276.67        41.69611
277.13        41.13605
277.58        40.46148
278.04        39.73705
278.49        38.93839
278.95        38.16791
279.40        37.39657
279.86        36.68665
280.31        35.97621
280.77        35.30075
281.22         34.6222
281.68        34.01313
282.13        33.46576
282.59        33.06542
283.04        32.77494
283.50        32.59026
283.95        32.45264
284.41        32.29231
284.86        32.09071
285.32         31.9003
285.77        31.73147
286.22        31.67297
286.68        31.72824
287.13         31.8087
287.59        31.90862
288.04        31.96807
288.50        31.98995
288.95        31.97152
289.41        31.87974
289.86        31.58711
290.32        31.15266
290.77        30.62347
291.22        30.19666
291.68        30.14326
292.13        30.50517
292.59        31.22833
293.04        32.15432
293.50        33.04491
293.95        33.81846
294.40        34.54299
294.86        35.32456
295.31        36.31863
295.77        37.57141
296.22        39.01197
296.68        40.54708
297.13         42.0252
297.58        43.42247
298.04        44.78482
298.49        46.21946
298.95        47.90895
299.40        49.86251
299.85        52.01791
300.31         54.2115
300.76        56.17166
301.21        57.86429
301.67         59.4003
302.12        60.92673
302.58        62.76099
303.03        64.90599
303.48        67.26892
303.94        69.71456
304.39        71.97299
304.84        74.01315
305.30        75.93427
305.75        77.76228
306.20        79.63145
306.66         81.5884
307.11        83.53777
307.57        85.47204
308.02        87.27097
308.47        88.93714
308.93        90.51286
309.38        92.01149
309.83        93.57368
310.29         95.2281
310.74        96.92657
311.19         98.5551
311.65        99.89893
312.10        100.8878
312.55        101.5803
313.00        102.1553
313.46        102.9006
313.91        103.8584
314.36        104.9789
314.82         106.091
315.27        106.9318
315.72        107.4167
316.18        107.6635
316.63        107.8042
317.08         108.096
317.53        108.6107
317.99        109.2585
318.44         109.952
318.89        110.5181
319.35        110.8961
319.80        111.1422
320.25        111.3186
320.70        111.5236
321.16        111.7877
321.61        112.1263
322.06        112.4714
322.51        112.7282
322.97        112.8625
323.42        112.9038
323.87         112.997
324.32        113.3977
324.78        114.1053
325.23        115.1281
325.68         116.106
326.13        116.4512
326.59        116.0422
327.04         115.091
327.49        114.0728
327.94        113.7735
328.39        114.3795
328.85        115.6294
329.30        117.2076
329.75        118.2546
330.20        118.4871
330.66        118.1208
331.11        117.5528
331.56        117.3439
332.01        117.6775
332.46        118.3471
332.92        119.1032
333.37        119.7138
333.82        120.0099
334.27         120.143
334.72        120.1935
335.17        120.2564
335.63        120.3873
336.08        120.6191
336.53        121.0083
336.98        121.7091
337.43        122.7267
337.88        123.9738
338.34        125.3032
338.79        126.5938
339.24        127.6825
339.69         128.579
340.14        129.1473
340.59        129.2055
341.05        128.8134
341.50        128.0686
341.95        127.3075
342.40        127.0359
342.85        127.3864
343.30        128.2337
343.75        129.3743
344.20        130.4386
344.66        131.2802
345.11        131.9727
345.56        132.5188
346.01        132.9427
346.46        133.2732
346.91        133.4837
347.36        133.6167
347.81        133.7736
348.26        133.9724
348.72        134.1862
349.17        134.4077
349.62        134.6515
350.07        134.9055
350.52        135.1964
350.97        135.3743
351.42        135.2004
351.87        134.6609
352.32        133.8315
352.77        133.0346
353.22        132.7398
353.67        133.0197
354.13        133.7352
354.58        134.5112
355.03        134.6743
355.48        134.0632
355.93        132.8731
356.38        131.5673
356.83        130.8461
357.28        130.8362
357.73        131.2952
358.18         131.768
358.63         131.524
359.08        130.4049
359.53        128.6957
359.98        126.8117
360.43        125.3484
360.88        124.4498
361.33        123.9136
361.78        123.5223
362.23        122.9408
362.68        122.0772
363.13        121.0786
363.58        120.0271
364.03         119.022
364.48         118.099
364.93        117.1895
365.38        116.3332
365.83        115.6241
366.28        115.0631
366.73        114.6279
367.18        114.1833
367.63        113.5029
368.08        112.5468
368.53        111.3912
368.98        110.1817
369.43        109.1527
369.88        108.3703
370.33        107.7656
370.78        107.2563
371.23        106.7092
371.68        106.0736
372.13        105.3846
372.58          104.67
373.03        103.9681
373.48        103.2808
373.93        102.5772
374.38        101.8209
374.83        100.9725
375.28        100.0389
375.72         99.0377
376.17        98.08139
376.62        97.20678
377.07        96.45006
377.52        95.83098
377.97        95.33169
378.42        94.93673
378.87        94.62768
379.32        94.33358
379.77        94.12011
380.22        94.12498
380.67        94.32186
381.11        94.55637
381.56        94.69885
382.01         94.0588
382.46        92.69116
382.91        90.85766
383.36         89.0804
383.81        88.05876
384.26        87.89928
384.71        88.36645
385.15        89.13572
385.60         89.6279
386.05        89.64088
386.50        89.32994
386.95        88.77369
387.40        88.10959
387.85        87.42364
388.29        86.62274
388.74          85.897
389.19        85.29578
389.64         84.8277
390.09         84.4877
390.54        84.21886
390.98        83.89158
391.43        83.52225
391.88        83.13468
392.33        82.78331
392.78        82.49819
393.23        82.27249
393.67         82.1712
394.12        82.19273
394.57         81.8681
395.02        81.32289
395.47        81.28024
395.91        81.63805
396.36        81.55314
396.81        81.00973
397.26        80.47977
397.71          80.059
398.15        79.71729
398.60        79.57648
399.05        79.41258
399.50        79.21763
399.95        79.37486
400.39        79.72462
400.84        79.25941
401.29         78.1226
401.74        77.65807
402.18        77.85147
402.63        77.21904
403.08        76.36734
403.53        75.93856
403.97        76.10678
404.42        76.38573
404.87        76.60232
405.32        76.62079
405.76        76.36919
406.21        75.99071
406.66         75.6024
407.11        75.30833
407.55         75.2578
408.00        75.52391
408.45        75.99293
408.90        76.46969
409.34        76.67442
409.79        76.09889
410.24        75.03218
410.68        74.43951
411.13        74.42718
411.58        74.49516
412.03        74.48726
412.47        74.36671
412.92        74.07065
413.37         73.6722
413.81        73.30795
414.26        73.23865
414.71        73.47419
415.15        73.95112
415.60        74.50658
416.05        74.93794
416.49        75.15921
416.94        75.20946
417.39        75.13542
417.83        74.99895
418.28        74.84611
418.73        74.66668
419.17        74.49887
419.62        74.41263
420.07        74.41079
420.51        74.45031
420.96        74.54637
421.41        74.61847
421.85        74.61335
422.30        74.71661
422.74        74.77963
423.19        74.48895
423.64        73.91282
424.08        73.58126
424.53         73.5719
424.98        73.62146
425.42        73.74585
425.87        74.18851
426.31         74.7579
426.76        74.83427
427.21        74.44032
427.65        74.05695
428.10        73.80545
428.54        73.73228
428.99         73.9269
429.44        73.99262
429.88        74.03927
430.33        74.98922
430.77         76.3089
431.22        76.54945
431.66        75.71741
432.11        74.77936
432.56        74.16518
433.00        74.07607
433.45        74.57569
433.89         75.5933
434.34        76.35992
434.78        76.73107
435.23        75.16005
435.67        73.82227
436.12        74.25805
436.57        74.53569
437.01        74.87723
437.46        75.28062
437.90        75.15697
438.35        74.19353
438.79        74.49936
439.24        74.37832
439.68        74.45594
440.13        74.66201
440.57         75.0444
441.02        75.36444
441.46        75.50885
441.91        76.17665
442.35        76.93376
442.80           76.26
443.24         74.6376
443.69        74.72369
444.13        76.30513
444.58        77.13614
445.02        76.63747
445.47        76.68063
445.91        77.18642
446.36        77.41362
446.80        77.29692
447.24        77.75789
447.69        77.58656
448.13        77.61111
448.58        77.63577
449.02        77.78471
449.47        78.01549
449.91        78.02602
450.36        77.83406
450.80        77.55969
451.25        77.32481
451.69        77.20083
452.13        77.23019
452.58        77.37317
453.02        77.55092
453.47        77.64382
453.91        77.60387
454.36        77.49168
454.80         77.3637
455.24        77.08988
455.69        76.66811
456.13        76.50181
456.58        76.75558
457.02        75.53561
457.46        75.93401
457.91        75.99488
458.35         76.3447
458.79        76.21655
459.24        75.64579
459.68        74.85087
460.13        74.10583
460.57        73.84799
461.01        74.24387
461.46        74.50191
461.90         74.9485
462.34        76.05017
462.79        75.69978
463.23        75.24239
463.68        75.67834
464.12        75.60597
464.56         75.3503
465.01        74.30556
465.45        72.90973
465.89        72.55873
466.34        73.08237
466.78         73.5825
467.22        73.91473
467.67        72.96343
468.11        72.83881
468.55        72.74676
468.99        73.20078
469.44        73.23782
469.88        72.85696
470.32        72.65342
470.77        72.64938
471.21        72.61993
471.65        72.54784
472.10        72.50231
472.54        72.49928
472.98        72.50687
473.42        72.49593
473.87        72.66464
474.31        72.84697
474.75        72.40205
475.20        71.56932
475.64        71.43949
476.08        71.96883
476.52        71.98515
476.97        71.37846
477.41        71.18275
477.85        71.69628
478.29         70.7291
478.74        71.50143
479.18        72.61376
479.62        71.76174
480.06        71.78523
480.50        71.71555
480.95        71.57198
481.39        71.41328
481.83        70.75055
482.27         71.1386
482.72        71.29195
483.16        71.49669
483.60        71.65762
484.04        71.75016
484.48        71.82352
484.93        71.68909
485.37        71.63975
485.81        71.29258
486.25        70.56783
486.69        72.80737
487.14        73.83333
487.58        71.76952
488.02        71.90277
488.46         70.4548
488.90        70.42929
489.34        71.73898
489.79         72.4959
490.23        71.95715
490.67        71.34557
491.11        70.75144
491.55        70.66484
491.99        71.00903
492.43        70.97269
492.88        70.55058
493.32        70.39146
493.76        70.54585
494.20        70.67582
494.64        70.76385
495.08        70.97619
495.52        71.21834
495.96        71.09139
496.41        70.65733
496.85        70.53044
497.29        70.59544
497.73        70.50351
498.17        69.49779
498.61        69.49063
499.05        70.14271
499.49        70.43875
499.93        70.07328
500.37        70.14431
500.82        70.54475
501.26         70.3215
501.70        70.01665
502.14        69.98179
502.58        70.33768
503.02        70.52719
503.46        70.52757
503.90        70.64485
504.34        70.82572
504.78         70.8318
505.22        70.62457
505.66        70.34279
506.10        70.09811
506.54        69.83106
506.98        69.52717
507.42        70.05244
507.86        69.86773
508.30         69.8713
508.74        69.95622
509.18        69.90659
509.62        69.83193
510.06        69.69784
510.50        69.61981
510.94        69.50364
511.38        69.41267
511.82        69.41869
512.26        69.52831
512.70        69.71729
513.14        69.92658
513.58        70.05884
514.02        70.08733
514.46         70.0399
514.90        69.95139
515.34        69.88288
515.78         69.8539
516.22        69.83994
516.66        69.84003
517.10         69.8537
517.54        69.87503
517.98        69.91261
518.42        69.93579
518.86        69.89092
519.30        69.77557
519.74        69.60957
520.18        69.45181
520.62        69.39439
521.06        69.45798
521.50        69.61666
521.93        69.81921
522.37        69.95753
522.81        70.00823
523.25        69.99184
523.69        69.94661
524.13        69.93841
524.57        69.97498
525.01        70.01949
525.45        70.03689
525.89        69.97504
526.32        69.82269
526.76        69.63663
527.20        69.42285
527.64        69.21159
528.08        69.02793
528.52        68.80942
528.96        68.63216
529.40        68.75028
529.83        69.10491
530.27        69.34335
530.71        69.39447
531.15        69.47784
531.59        69.58739
532.03        69.35828
532.46        69.19529
532.90        69.10821
533.34        69.09835
533.78        69.15375
534.22        69.19294
534.66        69.22946
535.09        69.19148
535.53        68.95815
535.97        68.58952
536.41        68.35056
536.85        68.27583
537.28        68.22942
537.72        68.21847
538.16        68.30668
538.60        68.47923
539.04         68.7142
539.47        68.92545
539.91        69.02439
540.35        68.97897
540.79        68.82154
541.22        68.62481
541.66        68.53062
542.10        68.56583
542.54        68.69054
542.97         68.8354
543.41         68.9239
543.85        68.91978
544.29         68.8561
544.72        68.75811
545.16        68.69636
545.60        68.67487
546.04        68.70605
546.47        68.76722
546.91        68.77287
547.35        68.74591
547.79        68.78791
548.22        68.88274
548.66         68.9979
549.10        69.13676
549.53        69.05058
549.97        68.82164
550.41        68.65183
550.84         68.6296
551.28        68.80237
551.72        69.05386
552.15        69.17039
552.59        69.17424
553.03        68.73907
553.46        68.86927
553.90        68.77457
554.34        68.75181
554.77        68.75749
555.21        68.80264
555.65        68.96301
556.08        69.16036
556.52        69.14877
556.96        68.94762
557.39        68.93841
557.83        69.08446
558.27        68.88004
558.70        68.39118
559.14        68.20742
559.57        68.31835
560.01        68.30849
560.45        68.20505
560.88        68.38766
561.32        68.79203
561.75        68.97354
562.19        68.94017
562.63        68.85364
563.06        68.78305
563.50        68.88782
563.93        69.05192
564.37        69.07896
564.80        68.97992
565.24          68.743
565.68        68.29858
566.11        68.95148
566.55        68.24352
566.98         68.2076
567.42         68.1992
567.85        68.33224
568.29        68.60655
568.72        68.95006
569.16        69.38506
569.60         69.6502
570.03        69.67568
570.47        69.86429
570.90        70.30346
571.34        69.43361
571.77        69.98698
572.21         70.3519
572.64        70.21533
573.08        70.32235
573.51        69.65303
573.95        69.58913
574.38        70.12267
574.82        70.11085
