SpectraSmart Spectrum 2.9.0.0
--------- Device Information -----------
Spectrum Name :  反射率_0
Saving Time :  2024/04/26 23:21:40
Spectro-Module Model Name : SE2030-DUVN
Spectro-Module Serial Number : OS361AC55029948
Wavelength Start : 200
Wavelength End : 1025
Wavelength Unit : Wavelength(nm)
Spectrum Unit : Reflectance(%)
-----------Spectrum Setting ------------
Integration Time : 20ms
Average : 10
Boxcar : 0
Background removal :  enabled
linearity correction :  enabled
SC :  disabled
Intensity correction :  disabled
DWT denoise :  enabled
savitzky-golay :  disabled
FFT :  disabled
Running average :  disabled
Kalman :  disabled
High pass :  disabled
---------------BEGIN--------------------
Wavelength(nm)             Reflectance(%)
200.29               0
200.75        57.58752
201.21         50.4806
201.67        44.62069
202.13        41.73034
202.58        41.54869
203.04        43.88669
203.50        48.33362
203.96        52.54293
204.42        54.64847
204.88        54.86724
205.34        53.44998
205.80        51.69586
206.26        50.39438
206.72        49.08221
207.18        48.21741
207.64        48.32285
208.10        49.42257
208.55        52.08437
209.01        55.79966
209.47        57.87648
209.93        56.96003
210.39        55.00727
210.85        53.68603
211.31        54.12242
211.77        56.79379
212.23        63.09211
212.69        80.81229
213.14         120.859
213.60        135.6792
214.06        121.2335
214.52        105.3198
214.98        93.00936
215.44        81.46269
215.90        67.91148
216.36        55.13474
216.81         48.4028
217.27        49.70581
217.73        59.79595
218.19         76.1734
218.65        82.14723
219.11         71.7486
219.57        56.43539
220.02        46.29306
220.48        45.99205
220.94        54.60609
221.40        72.46991
221.86         98.8936
222.32        116.5803
222.77         110.175
223.23        91.26982
223.69        72.30493
224.15        60.14179
224.61        53.79708
225.06        50.13869
225.52        48.43931
225.98        47.92834
226.44        48.18166
226.90        49.38589
227.36        50.92743
227.81        51.60609
228.27        51.26598
228.73        50.05751
229.19        48.81276
229.65        48.56882
230.10        49.35746
230.56        50.91209
231.02        52.30547
231.48        52.12029
231.93        50.23785
232.39         47.5677
232.85         45.2544
233.31        44.80155
233.77        46.29968
234.22        49.21869
234.68        52.54975
235.14        54.81031
235.60        55.55161
236.05        55.18243
236.51         54.2484
236.97        53.96002
237.43        54.83665
237.88        56.60018
238.34        58.77478
238.80        60.90229
239.26        62.97308
239.71        65.70049
240.17        69.25854
240.63        74.21561
241.08        80.74586
241.54        87.78933
242.00        95.67547
242.46        106.1523
242.91        121.6916
243.37        144.2813
243.83        173.9247
244.28        196.4463
244.74        191.6402
245.20        160.8585
245.66        125.8921
246.11        104.6017
246.57        96.96593
247.03        97.70294
247.48        101.2344
247.94        98.74932
248.40        90.90831
248.85        82.74515
249.31        76.89935
249.77        73.94604
250.22        73.18954
250.68        73.41219
251.14        75.01414
251.59        78.69244
252.05        83.70188
252.51        89.44684
252.96        92.42462
253.42        90.32266
253.88        84.38776
254.33        76.27377
254.79        70.47932
255.25         70.4976
255.70        75.69396
256.16        84.36569
256.62         92.3343
257.07        93.31544
257.53        88.72831
257.99        82.32256
258.44        76.91303
258.90        75.15609
259.35        75.80013
259.81        77.80537
260.27        79.67398
260.72        79.69749
261.18        78.14275
261.63        75.56815
262.09        73.11197
262.55        71.28817
263.00        70.00407
263.46        69.14851
263.91        68.22088
264.37        67.03717
264.83        65.53172
265.28        63.82221
265.74        62.30835
266.19        61.08212
266.65        60.22978
267.11        59.56538
267.56        58.93843
268.02        58.14592
268.47        57.14413
268.93        56.05479
269.38         54.9253
269.84        53.89469
270.30        52.97287
270.75        52.08289
271.21        51.28056
271.66        50.57917
272.12        49.96492
272.57        49.40314
273.03        48.74862
273.48        47.75916
273.94        46.48388
274.39        44.98548
274.85         43.5716
275.31         42.4994
275.76        41.78037
276.22         41.3672
276.67        41.03579
277.13        40.57526
277.58        39.88123
278.04        39.06506
278.49        38.20193
278.95        37.53848
279.40        37.05141
279.86        36.72447
280.31        36.37028
280.77        35.85631
281.22        35.12255
281.68        34.31374
282.13         33.5248
282.59        32.97832
283.04         32.6686
283.50        32.55376
283.95        32.52013
284.41         32.4099
284.86        32.18417
285.32        31.92928
285.77        31.70977
286.22        31.68599
286.68        31.87146
287.13        32.14965
287.59        32.45259
288.04        32.62915
288.50        32.66307
288.95        32.57618
289.41        32.40493
289.86        32.12291
290.32        31.80372
290.77        31.45889
291.22        31.20578
291.68        31.19755
292.13        31.45858
292.59        31.98022
293.04        32.69424
293.50        33.50107
293.95        34.35421
294.40        35.28173
294.86        36.30518
295.31        37.45088
295.77        38.72634
296.22        40.08509
296.68        41.51646
297.13        42.99205
297.58        44.51681
298.04        46.11463
298.49        47.76429
298.95         49.4534
299.40        51.16088
299.85        52.87326
300.31          54.644
300.76        56.53414
301.21        58.54494
301.67        60.66479
302.12        62.73254
302.58        64.59851
303.03        66.20103
303.48        67.64127
303.94        69.10012
304.39        70.77367
304.84        72.73282
305.30        74.90947
305.75        77.14063
306.20        79.27291
306.66        81.26141
307.11        83.10696
307.57        84.85091
308.02        86.43974
308.47        87.91051
308.93        89.27657
309.38        90.57159
309.83        91.97867
310.29        93.53416
310.74        95.18867
311.19        96.81627
311.65          98.171
312.10        99.17068
312.55         99.8801
313.00        100.4664
313.46        101.2019
313.91        102.1267
314.36        103.1876
314.82        104.2354
315.27        105.0482
315.72        105.5474
316.18        105.8369
316.63        106.0148
317.08        106.2831
317.53        106.7051
317.99        107.2151
318.44        107.7598
318.89        108.2215
319.35        108.5586
319.80        108.8106
320.25        109.0305
320.70        109.3007
321.16        109.6415
321.61        110.0735
322.06        110.5108
322.51        110.8283
322.97        110.9855
323.42        111.0141
323.87        111.0864
324.32        111.5068
324.78        112.2869
325.23        113.4211
325.68        114.5166
326.13        114.9276
326.59        114.5134
327.04           113.5
327.49        112.3979
327.94        112.0461
328.39        112.6465
328.85         113.931
329.30        115.5464
329.75        116.5715
330.20        116.7095
330.66        116.1951
331.11        115.4902
331.56        115.2577
332.01        115.7016
332.46        116.5884
332.92        117.5822
333.37        118.2973
333.82        118.5259
334.27        118.4659
334.72        118.2939
335.17        118.2674
335.63        118.4843
336.08        118.9174
336.53        119.5505
336.98        120.4201
337.43         121.486
337.88        122.6961
338.34        123.9162
338.79        125.0431
339.24        125.9414
339.69        126.6294
340.14        127.0082
340.59        126.9576
341.05        126.5528
341.50        125.8715
341.95        125.2429
342.40        125.1569
342.85        125.7216
343.30        126.8034
343.75        128.1309
344.20        129.2274
344.66        129.9317
345.11        130.3563
345.56        130.5947
346.01         130.819
346.46        131.1002
346.91        131.3717
347.36        131.6317
347.81         131.907
348.26         132.184
348.72        132.4518
349.17        132.6948
349.62        132.9149
350.07        133.0968
350.52        133.2606
350.97        133.2703
351.42        132.9181
351.87        132.2082
352.32        131.2276
352.77        130.2954
353.22        129.8658
353.67        130.0159
354.13        130.6206
354.58        131.3366
355.03        131.5413
355.48        131.0745
355.93        130.0971
356.38         129.025
356.83        128.4945
357.28        128.6077
357.73        129.1313
358.18        129.6057
358.63        129.3001
359.08        128.0653
359.53        126.1904
359.98        124.1245
360.43        122.5107
360.88        121.5096
361.33        120.9238
361.78        120.5113
362.23        119.8917
362.68        118.9645
363.13        117.8836
363.58        116.7754
364.03        115.8104
364.48         115.025
364.93        114.3165
365.38        113.6407
365.83         112.958
366.28        112.2456
366.73        111.5375
367.18        110.7826
367.63        109.8852
368.08        108.8482
368.53        107.7111
368.98         106.599
369.43         105.712
369.88        105.0905
370.33        104.6696
370.78        104.3338
371.23        103.8914
371.68        103.2769
372.13        102.5365
372.58        101.7241
373.03        100.9279
373.48        100.1742
373.93        99.42823
374.38        98.66721
374.83        97.86891
375.28        97.03511
375.72        96.17106
376.17        95.36222
376.62        94.60759
377.07        93.92752
377.52        93.34712
377.97        92.83965
378.42        92.37795
378.87        91.95057
379.32        91.51262
379.77        91.16782
380.22        91.07224
380.67        91.20693
381.11        91.54907
381.56        91.71909
382.01        91.19308
382.46         89.9325
382.91        88.19534
383.36        86.49893
383.81        85.54597
384.26        85.44357
384.71        85.95354
385.15         86.7238
385.60        87.13615
386.05        86.99082
386.50        86.46343
386.95         85.7075
387.40        84.96899
387.85        84.35323
388.29        83.73878
388.74        83.22266
389.19        82.73492
389.64        82.26084
390.09        81.81814
390.54        81.44215
390.98        81.15813
391.43        81.00587
391.88        80.94537
392.33        80.88747
392.78        80.70928
393.23        80.39325
393.67        79.94274
394.12        79.51922
394.57        79.20399
395.02        79.01681
395.47         78.9043
395.91        78.81718
396.36        78.64587
396.81        78.39427
397.26        78.10579
397.71        77.80641
398.15        77.53215
398.60        77.38368
399.05        77.16261
399.50        76.90186
399.95        76.94969
400.39        77.19221
400.84        76.86284
401.29        76.06097
401.74        75.70907
402.18        75.79687
402.63        75.48481
403.08        74.87638
403.53        74.64866
403.97        74.81427
404.42        75.05833
404.87        75.22009
405.32        75.13029
405.76        74.74167
406.21        74.21693
406.66        73.68188
407.11        73.26231
407.55        73.11401
408.00        73.26547
408.45        73.63879
408.90        74.18945
409.34        74.60172
409.79        74.15382
410.24        73.10412
410.68        72.53586
411.13        72.55173
411.58        72.56292
412.03        72.46066
412.47        72.34884
412.92        72.18113
413.37        71.97067
413.81        71.79414
414.26        71.82817
414.71        72.06403
415.15         72.4738
415.60        72.90597
416.05        73.17566
416.49        73.22581
416.94        73.10334
417.39        72.90781
417.83        72.78032
418.28        72.77407
418.73        72.84901
419.17        72.97791
419.62        73.11889
420.07        73.23432
420.51        73.30811
420.96        73.36914
421.41         73.3587
421.85        73.24576
422.30        73.23531
422.74        73.20998
423.19        72.85244
423.64        72.26009
424.08        72.06469
424.53        72.29378
424.98        72.47493
425.42        72.59018
425.87        73.01694
426.31        73.59393
426.76        73.62014
427.21        73.17125
427.65        72.94204
428.10         72.9922
428.54         73.0227
428.99        73.09128
429.44        73.12691
429.88        73.23304
430.33        73.89864
430.77        74.78461
431.22        75.24119
431.66        75.13772
432.11        74.46236
432.56        73.56709
433.00        73.41384
433.45        74.17779
433.89        74.98277
434.34        75.19613
434.78         76.0291
435.23        76.09565
435.67        73.63216
436.12        73.76968
436.57         73.8034
437.01        74.92415
437.46         75.3747
437.90        75.16685
438.35        74.03111
438.79        74.52768
439.24        74.45844
439.68        74.53699
440.13        74.79626
440.57        75.22902
441.02        75.51498
441.46        75.57972
441.91        76.08554
442.35         76.7178
442.80        76.37907
443.24        75.36605
443.69        75.52377
444.13        76.69426
444.58        77.20037
445.02        76.97027
445.47        76.94006
445.91        77.21163
446.36        77.43008
446.80        77.59577
447.24        77.77824
447.69        77.95864
448.13        78.08424
448.58        78.16171
449.02        78.18446
449.47        78.15353
449.91        78.03658
450.36        77.87185
450.80        77.65228
451.25        77.48299
451.69        77.46323
452.13        77.62125
452.58        77.90488
453.02        78.21449
453.47         78.3982
453.91          78.403
454.36        78.28289
454.80        78.06203
455.24        77.75194
455.69        77.39855
456.13        77.06339
456.58        76.84466
457.02        76.51311
457.46        76.23586
457.91        76.58227
458.35        77.23697
458.79        77.28646
459.24        76.74768
459.68        75.89327
460.13        74.99252
460.57        74.91248
461.01        75.27893
461.46        75.21354
461.90         75.4497
462.34        77.12053
462.79        76.26038
463.23        76.53556
463.68        76.75205
464.12        76.50302
464.56        75.82697
465.01        74.86389
465.45        73.95035
465.89        73.85203
466.34        74.35648
466.78        74.75593
467.22        74.94599
467.67        74.00891
468.11        74.13579
468.55        74.18545
468.99        74.64767
469.44        74.67924
469.88        74.26962
470.32        73.92168
470.77         73.7231
471.21        73.60739
471.65        73.58685
472.10        73.68896
472.54        73.84408
472.98        73.91325
473.42        73.85104
473.87        73.81425
474.31        73.73891
474.75        73.35178
475.20         72.8131
475.64        72.67446
476.08        72.92045
476.52        72.91469
476.97        72.60529
477.41        72.53344
477.85        72.84166
478.29        72.30817
478.74        72.97888
479.18        73.16319
479.62         72.8359
480.06        72.77959
480.50        72.78707
480.95        72.87313
481.39        73.00179
481.83        72.56049
482.27        72.51686
482.72        72.74525
483.16        72.35476
483.60        72.38323
484.04        72.48269
484.48        72.76958
484.93        72.98934
485.37        72.95007
485.81        72.33166
486.25         72.0606
486.69        73.30119
487.14        74.31517
487.58        72.50085
488.02        73.24245
488.46        72.04549
488.90        71.72099
489.34        72.80472
489.79        74.06487
490.23        73.17583
490.67        72.64855
491.11        72.00689
491.55        71.79635
491.99        71.97436
492.43         71.8889
492.88        71.57076
493.32        71.56458
493.76        71.85038
494.20        72.05376
494.64        72.12201
495.08        72.16833
495.52        72.19298
495.96        72.14342
496.41         72.0473
496.85        72.05856
497.29        72.02004
497.73        71.99273
498.17        71.14826
498.61        70.91983
499.05         71.0772
499.49        71.42069
499.93        71.58019
500.37        71.72289
500.82        71.76192
501.26        71.79842
501.70        71.89314
502.14        71.93066
502.58        71.94831
503.02        71.98401
503.46        72.04605
503.90        72.15666
504.34         72.2529
504.78         72.2053
505.22        71.99962
505.66        71.68778
506.10        71.37534
506.54        71.22007
506.98        71.25613
507.42        71.43552
507.86        71.65797
508.30        71.75777
508.74        71.69062
509.18        71.50809
509.62        71.28653
510.06        71.14932
510.50        71.13251
510.94         71.1945
511.38        71.29138
511.82        71.35815
512.26        71.38102
512.70        71.36893
513.14        71.33535
513.58        71.36356
514.02        71.47534
514.46        71.38448
514.90        71.54781
515.34        71.59873
515.78        71.66544
516.22        71.73295
516.66        71.77934
517.10        71.75942
517.54        71.66637
517.98        71.52608
518.42        71.37146
518.86        71.25548
519.30        71.19744
519.74        71.18443
520.18        71.21265
520.62        71.27242
521.06        71.35455
521.50        71.46097
521.93        71.57178
522.37        71.63192
522.81        71.63808
523.25        71.59542
523.69        71.53304
524.13        71.50198
524.57        71.51077
525.01        71.54001
525.45        71.56274
525.89        71.53378
526.32        71.43807
526.76        71.31858
527.20        71.18667
527.64        71.06493
528.08        70.96699
528.52        70.88399
528.96        70.84267
529.40        70.88516
529.83        71.00519
530.27        71.19093
530.71        71.37122
531.15        71.44077
531.59        71.37743
532.03        71.21009
532.46        70.99108
532.90        70.85496
533.34        70.82226
533.78        70.81889
534.22        70.81005
534.66        70.82912
535.09        70.80939
535.53        70.60613
535.97        70.27618
536.41        70.08917
536.85        70.07552
537.28        70.09985
537.72        70.14515
538.16        70.23968
538.60        70.36579
539.04        70.50645
539.47        70.62151
539.91        70.72137
540.35        70.78944
540.79        70.78272
541.22        70.68855
541.66         70.7664
542.10        70.61738
542.54         70.5575
542.97        70.47978
543.41        70.44611
543.85        70.44982
544.29        70.49306
544.72        70.52916
545.16         70.5163
545.60        70.44053
546.04        70.32885
546.47        70.23753
546.91        70.28014
547.35        70.47147
547.79        70.68489
548.22        70.86626
548.66        71.11648
549.10        71.39011
549.53        71.23607
549.97        70.76876
550.41        70.41688
550.84        70.31453
551.28        70.37336
551.72        70.49523
552.15        70.64294
552.59        70.85442
553.03        70.33653
553.46        70.85416
553.90        70.78503
554.34        70.62399
554.77        70.70139
555.21         70.5292
555.65        70.55696
556.08        70.64875
556.52        70.76131
556.96        70.83999
557.39        70.89204
557.83        70.89658
558.27         70.6612
558.70        70.26643
559.14        70.12003
559.57        70.21178
560.01         70.2206
560.45        70.15858
560.88        70.35095
561.32        70.75174
561.75        70.91789
562.19        70.87347
562.63        70.90719
563.06        71.00848
563.50        71.01451
563.93        70.87531
564.37        70.77772
564.80        70.76861
565.24        70.65092
565.68        70.28411
566.11        70.99842
566.55           70.25
566.98        70.07385
567.42        69.89241
567.85        70.10979
568.29        70.65813
568.72         71.0713
569.16        71.37005
569.60        71.53481
570.03        71.49079
570.47          71.616
570.90        71.94839
571.34        70.80882
571.77        71.37028
572.21        71.99403
572.64        71.70725
573.08        71.97345
573.51        71.06125
573.95        71.05428
574.38        71.69222
574.82        71.75364
