SpectraSmart Spectrum 2.9.0.0
--------- Device Information -----------
Spectrum Name :  反射率_0
Saving Time :  2024/04/26 23:16:40
Spectro-Module Model Name : SE2030-DUVN
Spectro-Module Serial Number : OS361AC55029948
Wavelength Start : 200
Wavelength End : 1025
Wavelength Unit : Wavelength(nm)
Spectrum Unit : Reflectance(%)
-----------Spectrum Setting ------------
Integration Time : 20ms
Average : 10
Boxcar : 0
Background removal :  enabled
linearity correction :  enabled
SC :  disabled
Intensity correction :  disabled
DWT denoise :  enabled
savitzky-golay :  disabled
FFT :  disabled
Running average :  disabled
Kalman :  disabled
High pass :  disabled
---------------BEGIN--------------------
Wavelength(nm)             Reflectance(%)
200.29               0
200.75        49.69604
201.21         44.3377
201.67        40.68552
202.13        39.21868
202.58        39.67812
203.04        42.39386
203.50        47.54352
203.96        54.03148
204.42        60.45317
204.88        66.18588
205.34        70.15042
205.80        71.80663
206.26        71.10006
206.72        67.91312
207.18        63.87182
207.64        60.09111
208.10         56.3647
208.55         52.7271
209.01         47.7668
209.47        41.87466
209.93        38.01228
210.39        36.79473
210.85        37.89481
211.31        41.57331
211.77        49.21381
212.23        66.21797
212.69        107.7681
213.14        174.9725
213.60        167.6814
214.06        116.8314
214.52        83.62754
214.98        69.33897
215.44        63.85669
215.90         61.1312
216.36         60.6993
216.81        62.80546
217.27        67.79881
217.73        78.26286
218.19        91.50323
218.65        92.37119
219.11          78.352
219.57        60.74777
220.02         49.5271
220.48        49.05984
220.94        58.05943
221.40        77.12301
221.86         105.724
222.32        125.3423
222.77        119.1796
223.23         99.3594
223.69        78.68568
224.15        64.27328
224.61        55.43761
225.06        49.18674
225.52        45.38539
225.98         43.8434
226.44        44.02342
226.90        45.84953
227.36        48.07792
227.81        48.52798
228.27        46.96309
228.73        43.98021
229.19        41.20685
229.65        40.55608
230.10        42.05057
230.56        45.05157
231.02        47.90865
231.48        48.05429
231.93        45.23131
232.39        40.87246
232.85        36.84818
233.31        35.53685
233.77        37.11633
234.22        40.70537
234.68        44.86435
235.14         47.4453
235.60        47.76934
236.05        46.40073
236.51        44.09992
236.97        42.52415
237.43        42.46388
237.88        43.58909
238.34        45.27776
238.80        46.72695
239.26        47.73217
239.71         48.8626
240.17        50.65548
240.63        54.60769
241.08        61.51277
241.54        70.64005
242.00        80.99179
242.46        91.57136
242.91        103.2603
243.37        116.6409
243.83        132.5976
244.28        147.5907
244.74        152.5462
245.20        145.0351
245.66        132.3071
246.11        121.5113
246.57         113.774
247.03        107.4584
247.48        100.8624
247.94         92.5942
248.40        84.88732
248.85        79.27567
249.31        75.76138
249.77        73.07026
250.22        70.29204
250.68        66.50837
251.14        62.75407
251.59        62.72721
252.05          67.722
252.51        75.86325
252.96        81.25776
253.42         79.2071
253.88        71.20065
254.33        60.14942
254.79         51.5797
255.25        49.93652
255.70        54.46336
256.16        62.77913
256.62        70.38378
257.07         70.7224
257.53        65.24006
257.99        58.11148
258.44        52.14281
258.90        49.63918
259.35        49.51631
259.81        50.63681
260.27        51.86704
260.72        51.96455
261.18        50.99698
261.63        49.36465
262.09         47.6836
262.55         46.1208
263.00        44.67845
263.46        43.38963
263.91        42.11544
264.37        40.96309
264.83          39.919
265.28        38.94193
265.74        38.19736
266.19        37.63337
266.65        37.26128
267.11        36.98185
267.56        36.67611
268.02        36.16025
268.47        35.40958
268.93        34.51857
269.38        33.54996
269.84        32.65064
270.30        31.85452
270.75        31.10807
271.21        30.48094
271.66        30.02589
272.12        29.72921
272.57        29.55716
273.03        29.34052
273.48        28.80577
273.94        27.96104
274.39        26.88354
274.85        25.84325
275.31        25.10713
275.76        24.69738
276.22        24.53285
276.67        24.43462
277.13        24.20592
277.58        23.76831
278.04        23.22045
278.49        22.60856
278.95        22.08805
279.40        21.65931
279.86        21.32525
280.31        21.00968
280.77        20.68479
281.22        20.31697
281.68        19.96267
282.13        19.64976
282.59        19.46607
283.04        19.39893
283.50        19.43395
283.95        19.49319
284.41        19.46064
284.86        19.31367
285.32        19.10178
285.77        18.90676
286.22        18.89058
286.68        19.06938
287.13        19.35898
287.59        19.65656
288.04        19.76976
288.50         19.6831
288.95         19.4538
289.41        19.19239
289.86        19.01086
290.32        18.97078
290.77        19.02559
291.22        19.17437
291.68        19.40433
292.13        19.70517
292.59        20.11415
293.04        20.61266
293.50        21.17761
293.95        21.79957
294.40        22.48216
294.86        23.26945
295.31        24.22713
295.77         25.3654
296.22        26.65039
296.68          28.014
297.13         29.3394
297.58         30.6119
298.04         31.8702
298.49          33.181
298.95        34.66692
299.40        36.33316
299.85        38.12363
300.31        39.96822
300.76        41.74914
301.21        43.44124
301.67        45.10452
302.12        46.73233
302.58        48.38387
303.03        50.05143
303.48        51.75199
303.94        53.54369
304.39        55.46225
304.84        57.52855
305.30        59.72735
305.75        61.96551
306.20        64.17478
306.66        66.33058
307.11        68.40788
307.57        70.40769
308.02        72.24477
308.47        73.93837
308.93        75.50935
309.38        77.01941
309.83        78.67668
310.29        80.51837
310.74        82.48186
311.19        84.40216
311.65        85.97221
312.10        87.09931
312.55        87.87243
313.00        88.49844
313.46        89.31132
313.91        90.37505
314.36        91.61718
314.82        92.87533
315.27        93.89799
315.72        94.58937
316.18        95.05223
316.63         95.3811
317.08        95.76821
317.53        96.27695
317.99        96.84737
318.44        97.42023
318.89        97.87384
319.35        98.17375
319.80        98.36358
320.25        98.53242
320.70        98.81811
321.16        99.24743
321.61        99.81843
322.06        100.3959
322.51        100.7675
322.97        100.8765
323.42        100.7901
323.87        100.7169
324.32        101.0184
324.78        101.7344
325.23        102.8311
325.68        103.9499
326.13        104.4957
326.59          104.32
327.04        103.6251
327.49        102.8204
327.94        102.5873
328.39        103.0936
328.85        104.1064
329.30        105.3694
329.75        106.1694
330.20        106.2817
330.66        105.9015
331.11         105.381
331.56        105.2051
332.01        105.5322
332.46        106.1837
332.92        106.9418
333.37        107.6045
333.82        108.0137
334.27        108.2921
334.72         108.481
335.17        108.6251
335.63        108.7604
336.08        108.9189
336.53        109.1845
336.98        109.7532
337.43        110.6505
337.88        111.8004
338.34        113.0296
338.79        114.1529
339.24        115.0167
339.69        115.6576
340.14        116.0484
340.59        116.1765
341.05          116.11
341.50         115.865
341.95        115.6137
342.40        115.6157
342.85        115.9451
343.30        116.5553
343.75        117.3348
344.20        118.0752
344.66        118.6959
345.11         119.224
345.56        119.6804
346.01        120.1129
346.46        120.5397
346.91        120.9431
347.36        121.2818
347.81        121.5135
348.26        121.6373
348.72        121.6678
349.17        121.7065
349.62        121.9485
350.07        122.4153
350.52        123.0609
350.97        123.6457
351.42        123.7819
351.87         123.408
352.32        122.6568
352.77        121.8623
353.22        121.5144
353.67        121.7087
354.13        122.2897
354.58        122.9651
355.03        123.2062
355.48        122.8688
355.93        122.1103
356.38        121.2339
356.83        120.6929
357.28        120.5752
357.73        120.7149
358.18        120.8346
358.63        120.5015
359.08        119.6229
359.53        118.3747
359.98        117.0102
360.43        115.8825
360.88        115.0783
361.33        114.4854
361.78         113.966
362.23        113.3088
362.68        112.4671
363.13        111.5362
363.58        110.6011
364.03        109.7742
364.48        109.0774
364.93        108.4446
365.38        107.8494
365.83        107.2679
366.28        106.6837
366.73        106.1171
367.18        105.5157
367.63        104.7886
368.08        103.9322
368.53        102.9767
368.98        102.0321
369.43        101.2748
369.88        100.7394
370.33        100.3709
370.78        100.0575
371.23        99.61399
371.68         98.9867
372.13        98.22868
372.58        97.41875
373.03        96.68211
373.48        96.05104
373.93        95.47784
374.38        94.91478
374.83        94.29609
375.28        93.60628
375.72        92.85899
376.17         92.1352
376.62        91.43764
377.07         90.7877
377.52        90.20004
377.97        89.67081
378.42        89.20896
378.87        88.81409
379.32         88.4501
379.77        88.17179
380.22        88.05743
380.67        88.08357
381.11        88.24558
381.56        88.27498
382.01         87.8324
382.46        86.90019
382.91        85.65395
383.36        84.43948
383.81        83.72609
384.26         83.5808
384.71        83.83699
385.15         84.2731
385.60         84.4929
386.05        84.36531
386.50         84.0031
386.95        83.46526
387.40        82.85138
387.85        82.23199
388.29        81.54123
388.74        80.94537
389.19        80.46945
389.64        80.11443
390.09        79.86225
390.54        79.67627
390.98        79.46834
391.43        79.25034
391.88        79.02612
392.33        78.79094
392.78        78.51452
393.23        78.19494
393.67        77.87392
394.12        77.63239
394.57        77.27244
395.02        76.87559
395.47        76.80248
395.91        76.97736
396.36        76.90142
396.81        76.55627
397.26        76.20506
397.71        75.91056
398.15        75.63604
398.60        75.47836
399.05        75.35307
399.50        75.24271
399.95         75.1887
400.39        75.16998
400.84        74.99538
401.29        74.68037
401.74        74.44566
402.18        74.27613
402.63        73.86525
403.08        73.35117
403.53        73.13906
403.97        73.25231
404.42        73.51256
404.87        73.75707
405.32        73.75246
405.76        73.43342
406.21        72.98163
406.66        72.52096
407.11        72.10136
407.55        71.88979
408.00        72.11986
408.45        72.64802
408.90        72.99053
409.34        72.93033
409.79        72.36305
410.24        71.53491
410.68        71.05198
411.13        71.00749
411.58        71.08694
412.03        71.16788
412.47        71.18297
412.92        71.06094
413.37        70.85559
413.81        70.65679
414.26        70.66331
414.71         70.8767
415.15        71.25814
415.60        71.65817
416.05        71.90049
416.49        71.93127
416.94        71.79823
417.39        71.60354
417.83         71.4901
418.28        71.50746
418.73        71.61109
419.17        71.76192
419.62        71.89986
420.07        71.98492
420.51        72.00971
420.96        72.01212
421.41        71.95089
421.85        71.80346
422.30        71.76467
422.74        71.72475
423.19        71.38818
423.64        70.84571
424.08        70.69404
424.53        70.95172
424.98        71.16386
425.42        71.30928
425.87        71.73088
426.31        72.27101
426.76        72.29592
427.21        71.86418
427.65         71.5546
428.10        71.46687
428.54         71.4641
428.99        71.61303
429.44        71.74873
429.88        71.93501
430.33         72.6609
430.77        73.55173
431.22        73.89066
431.66         73.5986
432.11        72.79118
432.56        71.82545
433.00        71.71396
433.45        72.59681
433.89        73.25291
434.34        73.00115
434.78        74.23164
435.23        73.53964
435.67        71.41108
436.12        72.61324
436.57        72.69505
437.01        73.07749
437.46        73.30132
437.90        73.45029
438.35        72.52346
438.79        72.91579
439.24        72.82566
439.68        72.90672
440.13        73.26317
440.57        73.83865
441.02        73.86401
441.46        73.43708
441.91        74.08582
442.35        75.31902
442.80        75.06403
443.24        73.65234
443.69        73.64387
444.13         74.9183
444.58        75.42477
445.02        75.09055
445.47        75.04784
445.91         75.3557
446.36        75.59199
446.80        75.73154
447.24        75.98118
447.69        76.27869
448.13        76.25018
448.58         76.0226
449.02        76.17007
449.47        76.61897
449.91         76.7228
450.36        76.48132
450.80        76.23132
451.25        76.08438
451.69        76.00156
452.13        76.02229
452.58        76.13927
453.02        76.29247
453.47        76.39389
453.91        76.40367
454.36        76.34872
454.80        76.22384
455.24         75.9865
455.69        75.65948
456.13        75.33778
456.58        75.10718
457.02        74.67851
457.46        74.24993
457.91        74.49893
458.35        75.11971
458.79        75.14496
459.24        74.57522
459.68        73.74164
460.13        72.94494
460.57        72.98382
461.01        72.96446
461.46        73.45461
461.90        73.94631
462.34        74.66181
462.79        74.40122
463.23        74.47806
463.68        74.48411
464.12        74.17242
464.56        73.56229
465.01        72.77071
465.45        72.03054
465.89        71.94473
466.34        72.35667
466.78        72.81264
467.22        73.16883
467.67         72.4529
468.11        72.01086
468.55         71.9712
468.99         72.5677
469.44        72.60874
469.88        72.07432
470.32        71.68914
470.77        71.54218
471.21        71.44456
471.65        71.39526
472.10        71.44778
472.54        71.55296
472.98        71.57004
473.42        71.45714
473.87        71.47173
474.31        71.50818
474.75        70.99577
475.20        70.19302
475.64        70.19462
476.08        70.91967
476.52         71.1228
476.97        70.68618
477.41        70.81031
477.85        71.10078
478.29        70.58439
478.74        70.69059
479.18        71.25822
479.62        70.82456
480.06        70.85285
480.50         70.7655
480.95        70.69758
481.39         70.6313
481.83        70.53987
482.27         70.1169
482.72        70.80178
483.16         70.3389
483.60        70.41373
484.04         70.4051
484.48        70.58393
484.93        70.76027
485.37        70.28106
485.81        69.98883
486.25         69.6516
486.69        70.86421
487.14        72.43948
487.58        70.57101
488.02        70.71589
488.46         69.1101
488.90        69.75703
489.34        70.89937
489.79        71.76687
490.23        71.00287
490.67        70.33618
491.11        69.79173
491.55        69.56175
491.99        69.63431
492.43        69.48229
492.88        69.13058
493.32        69.08628
493.76        69.34494
494.20        69.55125
494.64         69.6558
495.08         69.8215
495.52         69.9873
495.96        69.91416
496.41        69.65062
496.85        69.54611
497.29        69.51546
497.73         69.5612
498.17        68.86355
498.61        68.86941
499.05        69.25189
499.49        69.47417
499.93        69.23354
500.37        69.24183
500.82        69.44311
501.26        69.40353
501.70        69.10522
502.14        69.55434
502.58        69.40459
503.02        69.58322
503.46        69.67879
503.90        69.81942
504.34          69.936
504.78        69.88885
505.22        69.65028
505.66        69.32937
506.10        69.08502
506.54        68.87073
506.98        68.61057
507.42        69.52279
507.86        69.14529
508.30        69.20664
508.74        69.39484
509.18        69.35477
509.62        69.22156
510.06        69.08957
510.50        69.00642
510.94        68.91296
511.38        68.82675
511.82        68.78802
512.26        68.79934
512.70        68.85969
513.14         68.9374
513.58        68.97368
514.02        68.95447
514.46        68.89245
514.90        68.81956
515.34        68.79091
515.78        68.81622
516.22        68.87292
516.66        68.92899
517.10        68.93331
517.54        68.87714
517.98        68.78873
518.42        68.68781
518.86        68.60378
519.30        68.55121
519.74        68.51768
520.18        68.52589
520.62        68.61049
521.06        68.76987
521.50         68.9956
521.93        69.22607
522.37        69.33746
522.81        69.31303
523.25        69.17989
523.69        69.02167
524.13        68.97453
524.57          69.062
525.01        69.23325
525.45        69.40626
525.89        69.44743
526.32        69.31887
526.76        69.09423
527.20        68.82315
527.64        68.58659
528.08         68.4183
528.52        68.29287
528.96        68.22855
529.40        68.25397
529.83        68.35872
530.27        68.54141
530.71        68.72916
531.15        68.80987
531.59         68.7599
532.03        68.60425
532.46        68.40446
532.90        68.31059
533.34        68.34256
533.78        68.41983
534.22        68.48586
534.66        68.53819
535.09          68.508
535.53        68.26928
535.97        67.90073
536.41        67.69985
536.85        67.70226
537.28        67.76559
537.72        67.86449
538.16        67.99438
538.60        68.12669
539.04         68.3215
539.47        68.42076
539.91        68.48055
540.35        68.44954
540.79        68.34254
541.22         68.2055
541.66        68.13998
542.10        68.16093
542.54        68.24194
542.97        68.32463
543.41        68.34637
543.85        68.28045
544.29        68.16179
544.72        68.01724
545.16        67.91503
545.60        67.85847
546.04        67.87003
546.47        67.93806
546.91          67.955
547.35        67.94447
547.79        68.09602
548.22        68.34933
548.66        68.43657
549.10        68.41317
549.53        68.37373
549.97        68.34885
550.41        68.17921
550.84        67.92903
551.28        67.87341
551.72        67.99274
552.15        68.02699
552.59        67.99334
553.03        68.03149
553.46        68.20939
553.90        68.24841
554.34        68.16451
554.77        68.00966
555.21        67.86923
555.65        67.87743
556.08        68.02309
556.52        68.19098
556.96        68.31338
557.39        68.36765
557.83        68.43832
558.27        68.24057
558.70        67.85936
559.14        67.66689
559.57        67.65228
560.01        67.47631
560.45        67.22682
560.88        67.38174
561.32        67.86781
561.75        68.14637
562.19        68.16993
562.63        68.06275
563.06        67.89855
563.50        67.87988
563.93        67.94518
564.37        67.96451
564.80         67.9524
565.24        67.84312
565.68        67.51785
566.11        68.24364
566.55        67.57369
566.98        67.46297
567.42        67.33492
567.85        67.50665
568.29        67.93067
568.72        68.28886
569.16        68.62968
569.60        68.72275
570.03         68.7711
570.47        68.94051
570.90        69.39398
571.34        68.21188
571.77        69.09358
572.21        69.15319
572.64        68.82869
573.08        69.40645
573.51        68.61338
573.95         68.6634
574.38        69.03712
574.82        69.14238
