SpectraSmart Spectrum 2.9.0.0
--------- Device Information -----------
Spectrum Name :  反射率_0
Saving Time :  2024/04/26 23:20:18
Spectro-Module Model Name : SE2030-DUVN
Spectro-Module Serial Number : OS361AC55029948
Wavelength Start : 200
Wavelength End : 1025
Wavelength Unit : Wavelength(nm)
Spectrum Unit : Reflectance(%)
-----------Spectrum Setting ------------
Integration Time : 20ms
Average : 10
Boxcar : 0
Background removal :  enabled
linearity correction :  enabled
SC :  disabled
Intensity correction :  disabled
DWT denoise :  enabled
savitzky-golay :  disabled
FFT :  disabled
Running average :  disabled
Kalman :  disabled
High pass :  disabled
---------------BEGIN--------------------
Wavelength(nm)             Reflectance(%)
200.29               0
200.75        36.49388
201.21        32.91946
201.67        30.00292
202.13        28.86534
202.58        29.44753
203.04         31.7565
203.50         35.7174
203.96        40.09387
204.42        43.56305
204.88        45.85318
205.34         46.6254
205.80        46.16379
206.26        44.81561
206.72        42.58791
207.18         40.0799
207.64        37.45031
208.10        34.51715
208.55        31.30347
209.01        27.69342
209.47        26.16054
209.93        28.05538
210.39        31.38166
210.85        35.13123
211.31        40.19471
211.77        48.66219
212.23         66.1816
212.69        107.6467
213.14        172.7218
213.60        162.0693
214.06        109.6625
214.52        76.46667
214.98        62.66914
215.44        57.89787
215.90        56.49755
216.36        57.03033
216.81        57.99996
217.27        59.23177
217.73        62.60916
218.19        67.33208
218.65        67.97749
219.11        63.64988
219.57        57.52684
220.02         54.3306
220.48        57.52962
220.94        67.08979
221.40        84.40073
221.86        108.1856
222.32        120.7842
222.77        109.0842
223.23        86.13106
223.69        65.12735
224.15        52.80312
224.61        47.35458
225.06        45.21357
225.52        44.92023
225.98        44.98676
226.44         44.9618
226.90           45.27
227.36        45.56044
227.81        45.14604
228.27        44.10654
228.73        42.52888
229.19        41.08033
229.65        40.57432
230.10        41.02149
230.56        42.20498
231.02        43.45777
231.48        43.73689
231.93        42.85071
232.39        41.40338
232.85         40.1134
233.31        39.96246
233.77         41.0251
234.22        43.01643
234.68        45.21026
235.14        46.57761
235.60        46.86004
236.05         46.3643
236.51        45.69994
236.97        46.12265
237.43        48.07251
237.88        51.18245
238.34        54.78485
238.80        58.14201
239.26        61.16549
239.71        64.63059
240.17         68.4325
240.63        72.52323
241.08        76.82333
241.54        80.33228
242.00         84.4642
242.46        92.93932
242.91        109.1661
243.37         136.096
243.83        174.6085
244.28        207.5133
244.74        209.0495
245.20        179.1471
245.66        141.0791
246.11        115.8192
246.57        104.3032
247.03        100.1134
247.48        99.67574
247.94        97.95584
248.40        94.42013
248.85        91.47049
249.31        89.25948
249.77        86.34452
250.22        82.05482
250.68        75.32205
251.14        67.15627
251.59        62.97008
252.05        66.00846
252.51        74.22747
252.96        81.94756
253.42        84.38773
253.88         82.0855
254.33        77.05712
254.79        73.51745
255.25        74.77496
255.70        80.33938
256.16        88.62402
256.62        95.64862
257.07        95.59915
257.53        90.22584
257.99        83.29974
258.44        77.55476
258.90        75.52809
259.35        75.95062
259.81        77.82114
260.27         79.6907
260.72        79.91547
261.18        78.69667
261.63        76.46828
262.09        74.31444
262.55        72.70203
263.00        71.53049
263.46        70.73615
263.91        69.76395
264.37        68.36289
264.83        66.51421
265.28        64.40478
265.74        62.57478
266.19        61.29479
266.65        60.65613
267.11        60.38699
267.56        60.22177
268.02        59.77086
268.47        58.91328
268.93        57.80786
269.38        56.52015
269.84        55.22472
270.30        53.96666
270.75         52.6854
271.21        51.46714
271.66        50.36845
272.12         49.4035
272.57        48.54378
273.03        47.70504
273.48        46.72726
273.94        45.64649
274.39         44.4735
274.85        43.38574
275.31        42.46443
275.76        41.69685
276.22        41.09588
276.67         40.5297
277.13        39.92642
277.58        39.21083
278.04        38.43919
278.49        37.65029
278.95        37.03529
279.40        36.55615
279.86        36.22905
280.31        35.85474
280.77          35.277
281.22        34.44575
281.68         33.5099
282.13        32.62187
282.59        32.08559
283.04         31.8986
283.50        31.98805
283.95        32.16362
284.41        32.13856
284.86        31.85316
285.32        31.44977
285.77        31.06775
286.22        30.97256
286.68        31.20119
287.13        31.59532
287.59        32.06469
288.04        32.42613
288.50        32.63805
288.95        32.72707
289.41        32.69886
289.86        32.47826
290.32        32.14354
290.77         31.7333
291.22        31.40875
291.68         31.3919
292.13          31.726
292.59        32.37896
293.04        33.28317
293.50        34.33508
293.95        35.47332
294.40        36.72752
294.86        38.06443
295.31        39.42226
295.77        40.80157
296.22        42.18361
296.68        43.63877
297.13         45.2718
297.58        47.10841
298.04        49.11437
298.49        51.20229
298.95        53.25276
299.40        55.21136
299.85        57.11491
300.31        59.01108
300.76        60.94671
301.21         62.9507
301.67        65.02265
302.12        67.10575
302.58        69.21773
303.03        71.30099
303.48        73.38412
303.94        75.50221
304.39        77.62656
304.84        79.77983
305.30        81.96455
305.75        84.10596
306.20        86.19414
306.66        88.24081
307.11        90.21935
307.57        92.14342
308.02         93.9073
308.47        95.53855
308.93        97.06254
309.38        98.56379
309.83        100.3084
310.29        102.3266
310.74        104.5229
311.19        106.6354
311.65        108.2037
312.10        109.1037
312.55        109.4747
313.00        109.6436
313.46        110.1246
313.91        111.0192
314.36        112.2166
314.82        113.4698
315.27        114.3906
315.72        114.8551
316.18        115.0312
316.63        115.0908
317.08        115.3488
317.53        115.8913
317.99        116.5986
318.44        117.3588
318.89        117.9645
319.35        118.3443
319.80          118.57
320.25        118.7166
320.70        118.9013
321.16        119.1617
321.61        119.5096
322.06        119.8771
322.51        120.1695
322.97        120.3516
323.42        120.4562
323.87        120.6206
324.32        121.0904
324.78         121.856
325.23        122.9222
325.68        123.9331
326.13        124.3134
326.59        123.9397
327.04         123.023
327.49        122.0076
327.94        121.6327
328.39        122.0815
328.85        123.1064
329.30        124.4563
329.75        125.3729
330.20        125.6045
330.66        125.3345
331.11        124.9079
331.56        124.7906
332.01        125.1344
332.46        125.7585
332.92         126.422
333.37        126.9221
333.82        127.1054
334.27        127.1181
334.72        127.0662
335.17        127.0894
335.63        127.2504
336.08        127.5748
336.53          128.09
336.98        128.8985
337.43        129.9852
337.88        131.2705
338.34         132.606
338.79        133.8805
339.24        134.9357
339.69        135.7803
340.14        136.2891
340.59        136.3021
341.05        135.8824
341.50        135.1132
341.95        134.3326
342.40        134.0457
342.85        134.3779
343.30        135.2078
343.75        136.2925
344.20        137.1989
344.66        137.7838
345.11        138.1555
345.56        138.4039
346.01        138.6844
346.46        139.0588
346.91         139.465
347.36        139.8701
347.81        140.2596
348.26        140.6045
348.72        140.8819
349.17         141.125
349.62        141.4219
350.07        141.7664
350.52        142.1611
350.97        142.3567
351.42        141.9622
351.87        140.9654
352.32        139.5284
352.77        138.1483
353.22        137.5434
353.67        137.8325
354.13        138.7908
354.58        139.9179
355.03        140.3209
355.48        139.7594
355.93        138.4924
356.38        137.0201
356.83        136.0997
357.28        135.8913
357.73        136.1335
358.18        136.4068
358.63         136.052
359.08        134.9191
359.53        133.2656
359.98        131.4706
360.43        130.0644
360.88        129.1675
361.33        128.6019
361.78        128.1157
362.23        127.3248
362.68        126.1471
363.13        124.7455
363.58        123.3162
364.03        122.1351
364.48        121.2672
364.93        120.5986
365.38        120.0228
365.83        119.3893
366.28        118.6418
366.73        117.8308
367.18        116.9713
367.63        116.0745
368.08        115.1552
368.53        114.2129
368.98        113.2626
369.43        112.3338
369.88        111.4394
370.33        110.5762
370.78          109.77
371.23        109.0648
371.68        108.4584
372.13        107.9239
372.58        107.3967
373.03        106.7701
373.48        106.0101
373.93        105.1443
374.38        104.2008
374.83        103.2393
375.28        102.2965
375.72        101.3464
376.17        100.4787
376.62         99.7014
377.07        99.02722
377.52         98.4767
377.97        98.00478
378.42        97.54781
378.87        97.08371
379.32        96.58042
379.77         96.1371
380.22        95.90279
380.67        95.86539
381.11        96.00787
381.56        95.99574
382.01        95.38964
382.46        94.17111
382.91        92.57313
383.36          91.047
383.81        90.20227
384.26        90.12194
384.71        90.58331
385.15        91.28135
385.60        91.67528
386.05        91.58598
386.50        91.17056
386.95         90.5117
387.40        89.75264
387.85        88.98787
388.29        88.12783
388.74        87.38617
389.19        86.83978
389.64        86.48886
390.09        86.30489
390.54        86.18181
390.98        85.91405
391.43        85.50723
391.88        85.01147
392.33        84.51568
392.78        84.14574
393.23        83.92428
393.67        83.76551
394.12        83.68546
394.57        83.55175
395.02        83.33158
395.47        83.02431
395.91        82.70421
396.36        82.46641
396.81        82.37206
397.26        82.39873
397.71        82.40545
398.15        82.23657
398.60        81.97212
399.05        81.34692
399.50        80.61241
399.95        80.70486
400.39        81.40735
400.84        81.22534
401.29        80.18703
401.74        79.58718
402.18        79.49615
402.63        79.11953
403.08        78.55594
403.53        78.29775
403.97        78.36259
404.42        78.61318
404.87        78.86892
405.32        78.84052
405.76        78.46942
406.21        77.89549
406.66        77.28865
407.11        76.97526
407.55        77.05515
408.00        77.22292
408.45        77.39336
408.90        77.80241
409.34        78.16487
409.79        77.62107
410.24        76.45054
410.68        75.82446
411.13        75.85226
411.58        75.91711
412.03        75.89059
412.47        75.89116
412.92        75.75278
413.37        75.57838
413.81        75.40495
414.26        75.39874
414.71        75.55267
415.15        75.84534
415.60        76.14719
416.05        76.32145
416.49        76.32369
416.94        76.18112
417.39        75.98151
417.83        75.83881
418.28        75.79855
418.73        75.84551
419.17        75.91776
419.62        75.91471
420.07        75.79714
420.51        75.56559
420.96        75.36543
421.41        75.27001
421.85        75.25294
422.30         75.5951
422.74        75.99864
423.19        75.57577
423.64        74.52575
424.08         74.2673
424.53        74.80265
424.98        74.97227
425.42        74.73952
425.87          74.877
426.31         75.2871
426.76        75.25333
427.21        74.88035
427.65        74.70996
428.10        74.67777
428.54        75.11361
428.99        74.87862
429.44        74.69631
429.88        74.45621
430.33         75.2196
430.77        76.49479
431.22        76.90588
431.66        76.36024
432.11        75.41753
432.56        74.53535
433.00         74.4144
433.45        75.13569
433.89        76.15375
434.34        76.67294
434.78        77.02269
435.23         75.4801
435.67         73.8689
436.12        74.22581
436.57        74.49102
437.01        75.05311
437.46        75.27749
437.90        75.15331
438.35        74.37757
438.79        74.49361
439.24         74.4005
439.68        74.50269
440.13        74.86851
440.57        75.41798
441.02        75.53453
441.46        75.24483
441.91        75.68676
442.35        76.50066
442.80        76.17898
443.24        75.00491
443.69        75.03444
444.13         76.1366
444.58        76.57394
445.02        76.27787
445.47        76.22695
445.91        76.45347
446.36        76.60143
446.80        76.65791
447.24        76.70761
447.69        76.77621
448.13        76.88552
448.58        77.04756
449.02        77.21438
449.47        77.33977
449.91        77.31516
450.36          77.151
450.80        76.88099
451.25        76.60484
451.69        76.37496
452.13        76.25723
452.58        76.30199
453.02        76.44688
453.47        76.52074
453.91        76.47636
454.36        76.40718
454.80        76.34528
455.24        76.13275
455.69        75.76162
456.13        75.60896
456.58        75.79112
457.02        74.75412
457.46        74.73083
457.91        74.93183
458.35        75.63323
458.79        75.63108
459.24        74.95016
459.68        74.05863
460.13        73.25246
460.57        72.99232
461.01         73.4543
461.46        73.43668
461.90        74.00562
462.34        75.20883
462.79        74.87387
463.23        75.03584
463.68        74.90907
464.12        74.58803
464.56        74.05682
465.01        73.21518
465.45        72.31924
465.89        72.11906
466.34        72.46997
466.78        72.81975
467.22        73.05742
467.67        72.34738
468.11        72.09517
468.55        72.03009
468.99        72.44413
469.44         72.4457
469.88        72.02557
470.32        71.72736
470.77        71.61118
471.21        71.52886
471.65        71.47702
472.10        71.50211
472.54         71.5639
472.98        71.56286
473.42        71.46745
473.87        71.44902
474.31        71.42172
474.75        71.01873
475.20        70.41895
475.64        70.31078
476.08        70.66572
476.52        70.71609
476.97        70.40863
477.41        70.35952
477.85        70.67298
478.29         70.1237
478.74        70.63039
479.18        70.62231
479.62        70.66517
480.06        70.61237
480.50        70.43539
480.95        70.42802
481.39         70.6275
481.83        70.04842
482.27        70.02164
482.72        70.61946
483.16        70.21867
483.60        70.30265
484.04         70.4845
484.48        70.83847
484.93         71.1241
485.37        70.71794
485.81        70.02901
486.25        69.33469
486.69        71.14106
487.14        72.18429
487.58         70.2942
488.02        70.54624
488.46        69.31284
488.90        69.50703
489.34        70.57582
489.79        71.28571
490.23        70.47434
490.67         69.7785
491.11        69.18399
491.55        69.10114
491.99        69.43762
492.43        69.41238
492.88        69.01531
493.32        68.86211
493.76           68.98
494.20        69.06639
494.64        69.10789
495.08        69.16277
495.52        69.19656
495.96        69.27398
496.41         69.3577
496.85        69.16093
497.29        68.69591
497.73        68.83298
498.17        68.65816
498.61        68.57475
499.05        68.34501
499.49        68.47818
499.93         68.6814
500.37         68.8526
500.82         68.8803
501.26        68.88367
501.70        68.87122
502.14        68.85286
502.58        68.85247
503.02         68.8487
503.46        68.84818
503.90        68.89996
504.34        68.96294
504.78        68.92128
505.22        68.74537
505.66        68.53338
506.10        68.37994
506.54        68.19963
506.98        67.96808
507.42        68.45102
507.86        68.44539
508.30        68.24817
508.74        68.43259
509.18        68.29535
509.62        68.15047
510.06        68.04875
510.50        68.02745
510.94        68.04172
511.38        68.06674
511.82        68.08836
512.26        68.09637
512.70        68.10355
513.14        68.11311
513.58        68.12698
514.02        68.14613
514.46        68.16187
514.90        68.18122
515.34        68.21982
515.78        68.27319
516.22        68.33039
516.66        68.36478
517.10        68.33405
517.54        68.23344
517.98        68.08553
518.42        67.91599
518.86        67.76497
519.30        67.65203
519.74        67.57117
520.18        67.53631
520.62        67.56384
521.06        67.65324
521.50        67.80375
521.93        67.98071
522.37          68.105
522.81        68.16222
523.25        68.15456
523.69        68.12883
524.13        68.16585
524.57        68.27458
525.01        68.42493
525.45        68.54185
525.89        68.50538
526.32        68.29192
526.76        67.97202
527.20        67.63132
527.64        67.40584
528.08         67.3329
528.52        67.36938
528.96        67.47396
529.40        67.58043
529.83        67.65712
530.27        67.72797
530.71        67.77444
531.15        67.77463
531.59        67.72921
532.03        67.63693
532.46        67.51581
532.90        67.44724
533.34        67.43569
533.78        67.42656
534.22        67.40242
534.66        67.41596
535.09        67.41142
535.53        67.24538
535.97        66.95992
536.41        66.79642
536.85        66.77963
537.28        66.78114
537.72        66.80669
538.16        66.91647
538.60        67.09602
539.04        67.32156
539.47        67.51373
539.91        67.59551
540.35        67.53777
540.79        67.37072
541.22        67.16049
541.66        67.03773
542.10        67.02726
542.54        67.09185
542.97        67.17101
543.41        67.20347
543.85        67.15652
544.29        67.05716
544.72        66.92501
545.16        66.82844
545.60        66.78076
546.04        66.78033
546.47         66.8057
546.91        66.86939
547.35        66.97092
547.79        66.95483
548.22        66.87902
548.66        67.17741
549.10        67.74554
549.53        67.70735
549.97        67.16122
550.41         66.8334
550.84        66.82352
551.28        66.90887
551.72        67.01884
552.15         67.0182
552.59        66.90974
553.03        66.83039
553.46        66.92989
553.90        66.78267
554.34        66.76422
554.77        66.66985
555.21        66.63822
555.65         66.6199
556.08        66.73951
556.52        66.82246
556.96        66.86933
557.39        66.99965
557.83        67.15072
558.27        66.95972
558.70         66.5032
559.14        66.30692
559.57         66.3675
560.01        66.33921
560.45        66.24282
560.88        66.34375
561.32        66.62576
561.75        66.85562
562.19        66.99178
562.63        66.96428
563.06        66.81213
563.50        66.76794
563.93        66.78554
564.37        66.76501
564.80        66.74088
565.24        66.67356
565.68        66.42009
566.11        67.13882
566.55        66.41618
566.98        66.24918
567.42        66.07449
567.85        66.14944
568.29         66.4562
568.72        66.77285
569.16        67.15166
569.60        67.31129
570.03        67.43656
570.47        67.71349
570.90        68.27042
571.34        67.21242
571.77         67.9178
572.21        68.05417
572.64         67.6492
573.08        68.01173
573.51        67.20724
573.95        67.28848
574.38        67.87464
574.82        67.87336
