SpectraSmart Spectrum 2.9.0.0
--------- Device Information -----------
Spectrum Name :  反射率_0
Saving Time :  2024/04/26 23:18:23
Spectro-Module Model Name : SE2030-DUVN
Spectro-Module Serial Number : OS361AC55029948
Wavelength Start : 200
Wavelength End : 1025
Wavelength Unit : Wavelength(nm)
Spectrum Unit : Reflectance(%)
-----------Spectrum Setting ------------
Integration Time : 20ms
Average : 10
Boxcar : 0
Background removal :  enabled
linearity correction :  enabled
SC :  disabled
Intensity correction :  disabled
DWT denoise :  enabled
savitzky-golay :  disabled
FFT :  disabled
Running average :  disabled
Kalman :  disabled
High pass :  disabled
---------------BEGIN--------------------
Wavelength(nm)             Reflectance(%)
200.29               0
200.75        34.07772
201.21         36.6377
201.67        39.78246
202.13        41.67528
202.58        42.13356
203.04        41.97086
203.50         42.1029
203.96        44.48028
204.42          50.002
204.88        57.86551
205.34        65.20268
205.80        67.64804
206.26        64.40609
206.72        57.28345
207.18        50.01825
207.64        45.35983
208.10        43.16393
208.55        43.18375
209.01        43.56654
209.47        40.32103
209.93        34.28371
210.39        29.28892
210.85         27.3946
211.31         29.7412
211.77        37.56184
212.23        56.14898
212.69        104.3629
213.14        192.3155
213.60        201.8246
214.06        149.8629
214.52        109.9662
214.98        88.44008
215.44        74.92531
215.90        62.34601
216.36        51.96028
216.81        47.31142
217.27        49.77295
217.73        61.25042
218.19        79.03131
218.65         84.6324
219.11        72.10618
219.57        54.11277
220.02        42.08564
220.48         41.1671
220.94        50.18027
221.40        69.45938
221.86        98.33772
222.32        117.9976
222.77        111.6688
223.23         91.8113
223.69        71.81074
224.15        59.17007
224.61        52.81483
225.06        49.22422
225.52         47.7425
225.98        47.72836
226.44        48.72394
226.90         50.9733
227.36        53.41668
227.81        54.08385
228.27        52.80212
228.73        50.05362
229.19        47.48926
229.65        47.08907
230.10        48.87273
230.56        52.21295
231.02        55.36399
231.48        55.58768
231.93        52.61733
232.39        48.00587
232.85        43.73252
233.31        42.31584
233.77        43.96357
234.22        47.75328
234.68        52.24408
235.14         55.2723
235.60        56.16678
236.05        55.55407
236.51        54.11411
236.97        53.35606
237.43          53.929
237.88        55.35294
238.34        57.19176
238.80        59.07224
239.26        60.97352
239.71        63.75168
240.17        67.19434
240.63         70.8054
241.08        74.27759
241.54         76.6244
242.00        79.59701
242.46        87.55032
242.91        104.1997
243.37         132.936
243.83        174.0475
244.28        207.1513
244.74        203.8361
245.20        165.1805
245.66        120.2103
246.11        94.09743
246.57        87.07481
247.03        91.83936
247.48        100.4533
247.94        99.91307
248.40        90.58858
248.85        79.81071
249.31        72.22189
249.77        69.96173
250.22        72.37273
250.68        78.05652
251.14        86.11419
251.59        92.22084
252.05        93.21039
252.51        91.46422
252.96        87.17085
253.42        81.08601
253.88        74.40014
254.33        67.41221
254.79        63.60073
255.25        65.75817
255.70        72.99603
256.16        83.62035
256.62        93.19077
257.07        94.85962
257.53        90.07578
257.99        83.04536
258.44        76.74426
258.90        73.85956
259.35        73.26524
259.81        74.01498
260.27        74.96221
260.72        74.88865
261.18        73.94443
261.63        72.33585
262.09        70.84746
262.55        69.67118
263.00        68.69819
263.46        67.97369
263.91        67.04169
264.37        65.74992
264.83        64.10438
265.28        62.24756
265.74        60.68356
266.19        59.66798
266.65          59.278
267.11        59.23436
267.56        59.29688
268.02        59.10084
268.47        58.52074
268.93        57.72293
269.38        56.66586
269.84        55.36703
270.30        53.87077
270.75        52.16698
271.21        50.57159
271.66        49.49078
272.12        48.98081
272.57        48.89323
273.03        48.84087
273.48        48.17352
273.94        46.84392
274.39        45.06285
274.85        43.29406
275.31        42.01461
275.76        41.28279
276.22        40.94515
276.67        40.74354
277.13         40.4312
277.58        39.87326
278.04        39.20167
278.49        38.42483
278.95        37.68121
279.40        36.95643
279.86        36.28937
280.31        35.61235
280.77        34.96292
281.22        34.30553
281.68        33.71556
282.13        33.19992
282.59        32.86124
283.04        32.66027
283.50        32.58244
283.95        32.53973
284.41        32.41534
284.86        32.18123
285.32        31.90899
285.77        31.63963
286.22        31.50231
286.68        31.51701
287.13        31.59468
287.59        31.71755
288.04        31.80817
288.50        31.86113
288.95         31.8665
289.41        31.81984
289.86        31.63475
290.32        31.36621
290.77        31.04722
291.22        30.79302
291.68        30.75492
292.13        30.96461
292.59        31.40886
293.04        32.05569
293.50        32.86628
293.95        33.79884
294.40         34.8596
294.86        36.01135
295.31        37.18555
295.77        38.37231
296.22        39.56069
296.68        40.78887
297.13        42.10776
297.58        43.54251
298.04        45.08442
298.49        46.70399
298.95        48.37326
299.40          50.063
299.85        51.78047
300.31        53.53925
300.76        55.33459
301.21        57.17123
301.67        59.05968
302.12        60.93715
302.58        62.80542
303.03        64.61366
303.48        66.39096
303.94        68.19617
304.39         70.0455
304.84        71.97174
305.30        73.97512
305.75        75.95924
306.20        77.87229
306.66        79.71116
307.11        81.44913
307.57        83.14248
308.02        84.76437
308.47        86.34088
308.93        87.87346
309.38        89.34279
309.83        90.84399
310.29        92.39404
310.74        93.96764
311.19        95.47182
311.65        96.72094
312.10        97.65756
312.55        98.33198
313.00        98.91192
313.46        99.67001
313.91        100.6407
314.36        101.7691
314.82        102.8914
315.27        103.7557
315.72        104.2745
316.18        104.5597
316.63        104.7092
317.08        104.9297
317.53        105.2876
317.99        105.7094
318.44        106.1688
318.89        106.5919
319.35        106.9448
319.80        107.2642
320.25        107.5441
320.70         107.769
321.16        107.9456
321.61        108.1217
322.06        108.3092
322.51        108.5445
322.97        108.8211
323.42         109.118
323.87        109.4883
324.32        110.0437
324.78        110.7423
325.23        111.6268
325.68        112.4046
326.13        112.6073
326.59        112.1556
327.04        111.2313
327.49        110.2587
327.94        109.9413
328.39        110.4458
328.85        111.5397
329.30        112.9605
329.75        113.9494
330.20        114.2471
330.66        114.0323
331.11        113.6261
331.56        113.4712
332.01        113.7237
332.46        114.2223
332.92        114.7744
333.37        115.2418
333.82        115.4958
334.27        115.6523
334.72        115.7921
335.17        116.0125
335.63        116.3448
336.08        116.8063
336.53        117.3786
336.98        118.0912
337.43        118.9213
337.88        119.8172
338.34        120.7043
338.79        121.5892
339.24         122.373
339.69        123.0541
340.14        123.5029
340.59        123.5324
341.05        123.1871
341.50        122.5609
341.95        121.9575
342.40        121.8302
342.85        122.2853
343.30        123.1909
343.75        124.3294
344.20        125.3212
344.66         126.026
345.11        126.5314
345.56        126.8715
346.01        127.1161
346.46        127.3206
346.91        127.4658
347.36        127.5986
347.81        127.8207
348.26        128.1382
348.72        128.5014
349.17        128.8957
349.62        129.3264
350.07        129.7588
350.52        130.2093
350.97        130.4612
351.42        130.1763
351.87        129.3441
352.32        128.0968
352.77        126.8713
353.22        126.3038
353.67        126.5058
354.13        127.2911
354.58        128.2307
355.03        128.5534
355.48        128.0559
355.93        126.9638
356.38         125.722
356.83        125.0047
357.28        124.9432
357.73        125.2904
358.18        125.6522
358.63        125.4086
359.08        124.4168
359.53        122.9249
359.98        121.2661
360.43        119.9059
360.88        118.9679
361.33        118.3049
361.78        117.7575
362.23         117.085
362.68        116.2246
363.13        115.2788
363.58        114.3332
364.03        113.4968
364.48        112.7856
364.93        112.1272
365.38        111.4717
365.83        110.7638
366.28        109.9875
366.73        109.1769
367.18        108.3277
367.63        107.4218
368.08        106.4711
368.53        105.4885
368.98        104.5394
369.43        103.7224
369.88        103.0584
370.33        102.5255
370.78        102.0527
371.23        101.5219
371.68         100.901
372.13        100.2141
372.58        99.52735
373.03        98.95029
373.48         98.4908
373.93         98.0893
374.38        97.65624
374.83         97.0615
375.28        96.28073
375.72        95.35651
376.17        94.40699
376.62        93.48807
377.07        92.65031
377.52        91.90625
377.97        91.28059
378.42        90.82475
378.87        90.53301
379.32        90.34142
379.77        90.25487
380.22        90.27828
380.67        90.36632
381.11        90.53483
381.56        90.50682
382.01        89.94142
382.46        88.84209
382.91        87.39597
383.36         86.0138
383.81        85.25382
384.26        85.19283
384.71        85.64107
385.15        86.30691
385.60        86.66829
386.05        86.55848
386.50        86.12466
386.95        85.47972
387.40         84.8123
387.85        84.21096
388.29        83.56812
388.74        83.02311
389.19        82.56194
389.64         82.1756
390.09        81.86833
390.54        81.60439
390.98        81.29234
391.43        80.96088
391.88        80.62992
392.33        80.33544
392.78        80.06892
393.23        79.82364
393.67        79.67571
394.12        79.69643
394.57        79.33855
395.02        79.25203
395.47        79.22083
395.91        79.35406
396.36        79.23132
396.81        78.85311
397.26        78.43023
397.71        78.01369
398.15        77.61843
398.60        77.36155
399.05        77.07034
399.50        76.77859
399.95        76.80869
400.39        77.05221
400.84        76.78497
401.29        76.08233
401.74        75.79326
402.18        75.88955
402.63        75.54347
403.08        74.87173
403.53         74.5918
403.97        74.73241
404.42        74.95251
404.87        75.12196
405.32        75.14938
405.76        74.98471
406.21        74.69952
406.66        74.35252
407.11        74.10073
407.55        74.01432
408.00        73.85503
408.45        73.66717
408.90        73.90169
409.34        74.35214
409.79        74.12132
410.24         73.3626
410.68         73.0284
411.13        73.17522
411.58        73.26851
412.03        73.21705
412.47        73.12785
412.92        72.96189
413.37        72.73266
413.81        72.49769
414.26        72.40861
414.71        72.46304
415.15        72.64955
415.60        72.88606
416.05        73.10728
416.49        73.27918
416.94        73.40183
417.39        73.47871
417.83         73.5018
418.28        73.48405
418.73        73.43024
419.17        73.36167
419.62        73.31986
420.07        73.30989
420.51        73.29811
420.96        73.32375
421.41        73.36099
421.85        73.36932
422.30        73.48948
422.74        73.58636
423.19        73.41142
423.64        73.00744
424.08        72.79773
424.53        72.81625
424.98        72.83701
425.42        72.87278
425.87        73.09751
426.31        73.42434
426.76        73.48958
427.21         73.3371
427.65        73.26477
428.10        73.24612
428.54        73.38507
428.99        73.41322
429.44        73.21677
429.88        72.93247
430.33        73.72742
430.77        75.11894
431.22         75.5349
431.66        74.87798
432.11        74.24938
432.56        73.47701
433.00        73.33076
433.45        73.79514
433.89        74.72733
434.34        75.38946
434.78        76.03184
435.23        75.07616
435.67         73.2507
436.12         73.8027
436.57        74.01198
437.01        74.60755
437.46        74.92229
437.90        75.00186
438.35        73.86003
438.79        74.33416
439.24        74.22607
439.68        74.32549
440.13        74.57324
440.57        74.97091
441.02        75.21825
441.46        75.24984
441.91        75.74202
442.35         76.4193
442.80        76.01312
443.24        75.38604
443.69        75.37971
444.13        76.11598
444.58         76.4631
445.02        76.35308
445.47        76.38216
445.91        76.60291
446.36        76.81245
446.80        76.97149
447.24        77.48126
447.69        77.64965
448.13        77.78677
448.58        77.87912
449.02        77.89082
449.47        77.89077
449.91        77.81163
450.36        77.69918
450.80        77.57499
451.25        77.48816
451.69          77.426
452.13        77.41267
452.58        77.45136
453.02        77.51926
453.47        77.58309
453.91        77.61404
454.36           77.62
454.80        77.60685
455.24        77.47421
455.69        77.21609
456.13         77.0917
456.58        77.15002
457.02        76.41435
457.46         75.9126
457.91        76.10019
458.35        76.87838
458.79         76.8871
459.24        76.14438
459.68        75.21352
460.13        74.41023
460.57        74.17715
461.01        74.71465
461.46        74.61613
461.90        75.39972
462.34        76.40353
462.79         75.8279
463.23        75.62361
463.68        76.35034
464.12        76.18608
464.56        75.49069
465.01        74.58895
465.45        73.73488
465.89        73.52161
466.34        73.81797
466.78        74.03157
467.22        74.09692
467.67        73.66588
468.11        73.66101
468.55        73.78138
468.99        74.17382
469.44         74.2385
469.88        73.95991
470.32         73.7002
470.77        73.52523
471.21        73.38386
471.65        73.28978
472.10        73.26741
472.54        73.28999
472.98        73.29176
473.42        73.24843
473.87        73.27827
474.31        73.27971
474.75        72.97226
475.20        72.52294
475.64        72.24238
476.08        72.62158
476.52        72.54103
476.97         72.1016
477.41        71.88282
477.85        72.06435
478.29        71.52905
478.74        71.98056
479.18        72.55193
479.62        72.51153
480.06        72.63258
480.50        72.49974
480.95        72.47867
481.39        72.64497
481.83        71.75229
482.27        71.91882
482.72         72.2635
483.16          71.854
483.60         71.9436
484.04        72.09215
484.48         72.3752
484.93        72.47483
485.37        72.39079
485.81        71.97953
486.25        71.07121
486.69        71.88794
487.14        73.26003
487.58        72.30769
488.02        72.25533
488.46        71.15545
488.90        70.98818
489.34        72.47237
489.79        73.57868
490.23        72.67919
490.67        71.94156
491.11        71.19419
491.55        70.97893
491.99        71.25063
492.43        71.22106
492.88        70.89985
493.32        70.94401
493.76        71.32056
494.20        71.56285
494.64        71.61338
495.08        71.64024
495.52        71.64033
495.96        71.52449
496.41        71.34633
496.85        71.31033
497.29        71.29369
497.73        71.38595
498.17        70.72135
498.61        70.63442
499.05        70.84627
499.49        71.06633
499.93        70.99265
500.37        71.08898
500.82        71.24499
501.26        71.23531
501.70        71.09734
502.14        71.09295
502.58         71.2382
503.02        71.34669
503.46        71.41436
503.90        71.53162
504.34        71.70972
504.78        71.66805
505.22        71.40793
505.66        71.04314
506.10        70.72005
506.54        70.38943
506.98        70.57137
507.42        70.72773
507.86        70.91301
508.30        71.03106
508.74        71.04165
509.18        70.95109
509.62        70.79534
510.06          70.668
510.50        70.59737
510.94        70.54716
511.38         70.5385
511.82        70.60955
512.26        70.75637
512.70        70.97291
513.14        71.18906
513.58        71.28655
514.02        71.24211
514.46         71.0846
514.90         70.8952
515.34        70.82362
515.78        70.88014
516.22        71.03676
516.66        71.21744
517.10        71.31033
517.54        71.28329
517.98        71.17636
518.42        71.02848
518.86         70.8949
519.30        70.79703
519.74        70.72905
520.18         70.6877
520.62         70.6349
521.06        70.58617
521.50        70.63133
521.93        70.74356
522.37        70.78482
522.81        70.75026
523.25        70.68983
523.69        70.65824
524.13        70.72624
524.57        70.89857
525.01        71.13742
525.45        71.35856
525.89        71.42838
526.32        71.30945
526.76        71.06883
527.20         70.7681
527.64        70.51051
528.08        70.33649
528.52        70.22247
528.96        70.17063
529.40        70.18124
529.83        70.24136
530.27        70.35856
530.71        70.49233
531.15        70.58228
531.59        70.61063
532.03        70.58095
532.46        70.50701
532.90        70.46651
533.34        70.46355
533.78        70.44189
534.22        70.38472
534.66        70.35291
535.09        70.29459
535.53        70.06236
535.97        69.71809
536.41        69.53892
536.85        69.55244
537.28         69.6161
537.72        69.70993
538.16        69.85292
538.60        70.02087
539.04        70.20547
539.47        70.34328
539.91        70.38515
540.35        70.30997
540.79        70.13653
541.22        69.93675
541.66        69.85039
542.10         69.8999
542.54        70.05024
542.97        70.20991
543.41        70.26772
543.85        70.18356
544.29        69.99889
544.72        69.78166
545.16         69.6685
545.60         69.6785
546.04        69.81179
546.47        69.99149
546.91        70.05169
547.35        70.00262
547.79        69.93566
548.22        69.90157
548.66        70.06921
549.10        70.40454
549.53        70.38021
549.97        70.06509
550.41        69.86798
550.84         69.8952
551.28        70.02075
551.72        70.13644
552.15         70.2666
552.59        70.46701
553.03         69.7327
553.46        70.21378
553.90        70.07398
554.34          69.922
554.77        70.08575
555.21          69.992
555.65        70.08632
556.08         70.1345
556.52        70.17607
556.96        70.19746
557.39        70.17918
557.83        70.06918
558.27        70.20199
558.70        69.59932
559.14        69.48027
559.57        69.53217
560.01        69.53647
560.45        69.49573
560.88        69.61827
561.32          69.889
561.75        70.07059
562.19         70.1531
562.63        70.11031
563.06        69.98122
563.50        70.05039
563.93        70.09275
564.37        70.10569
564.80         70.0732
565.24        69.96461
565.68        69.64146
566.11        70.34345
566.55        69.55057
566.98        69.33933
567.42        69.13602
567.85        69.23956
568.29        69.63854
568.72        70.06104
569.16        70.54565
569.60        70.71134
570.03        70.79695
570.47        70.78215
570.90        70.83219
571.34        70.16763
571.77        70.73084
572.21        70.79002
572.64        70.66371
573.08        71.21586
573.51        70.32507
573.95          70.242
574.38        70.49062
574.82         70.9187
