SpectraSmart Spectrum 2.9.0.0
--------- Device Information -----------
Spectrum Name :  反射率_0
Saving Time :  2024/04/26 23:23:31
Spectro-Module Model Name : SE2030-DUVN
Spectro-Module Serial Number : OS361AC55029948
Wavelength Start : 200
Wavelength End : 1025
Wavelength Unit : Wavelength(nm)
Spectrum Unit : Reflectance(%)
-----------Spectrum Setting ------------
Integration Time : 20ms
Average : 10
Boxcar : 0
Background removal :  enabled
linearity correction :  enabled
SC :  disabled
Intensity correction :  disabled
DWT denoise :  enabled
savitzky-golay :  disabled
FFT :  disabled
Running average :  disabled
Kalman :  disabled
High pass :  disabled
---------------BEGIN--------------------
Wavelength(nm)             Reflectance(%)
200.29               0
200.75        40.18137
201.21        41.22272
201.67        42.24345
202.13        42.79079
202.58        42.82772
203.04        42.85039
203.50        43.16325
203.96        44.23972
204.42        46.33778
204.88        49.14545
205.34        52.13962
205.80        54.63152
206.26        55.96967
206.72        55.80315
207.18        54.73788
207.64        53.25021
208.10        51.31118
208.55        49.18025
209.01        45.15903
209.47        38.56968
209.93        32.52456
210.39        28.86159
210.85        28.02097
211.31        30.03023
211.77        35.69835
212.23        49.65984
212.69        85.10114
213.14        144.4927
213.60        141.4282
214.06        98.41521
214.52         70.3951
214.98        60.12693
215.44         58.7071
215.90        60.67962
216.36        64.01458
216.81        66.09372
217.27        66.23486
217.73        66.17854
218.19        65.29733
218.65        61.86544
219.11        57.74238
219.57        54.25938
220.02        53.35944
220.48        56.99403
220.94        65.36346
221.40        80.18218
221.86        101.1548
222.32        114.7873
222.77        109.3302
223.23        93.84277
223.69        78.58073
224.15        69.39963
224.61        65.20321
225.06        63.08084
225.52        62.38984
225.98        62.23856
226.44        62.26998
226.90        62.83605
227.36        63.17454
227.81        61.94605
228.27        59.36716
228.73        55.95947
229.19        53.11959
229.65        52.45384
230.10        53.89905
230.56        56.84021
231.02        59.96666
231.48        61.17725
231.93        60.07055
232.39        57.82465
232.85        55.48587
233.31        54.43867
233.77        54.89936
234.22        56.38969
234.68        58.47641
235.14        60.64593
235.60        62.69402
236.05        64.90333
236.51        67.14361
236.97        69.08838
237.43        70.56168
237.88        71.51067
238.34        72.18196
238.80        73.52817
239.26        76.06374
239.71        80.38331
240.17        86.11041
240.63        92.20212
241.08        97.77519
241.54        101.8467
242.00        105.9668
242.46        114.1603
242.91        130.1123
243.37        156.3557
243.83        192.8461
244.28        221.0168
244.74        215.0529
245.20         176.781
245.66        133.8026
246.11        108.9927
246.57        102.2135
247.03        106.8788
247.48        114.4168
247.94        111.2729
248.40        98.78989
248.85        84.90198
249.31        75.11481
249.77        72.05994
250.22        74.86463
250.68         82.1565
251.14        92.54697
251.59        99.63605
252.05        99.57362
252.51        96.09488
252.96        90.90247
253.42        86.23302
253.88        82.78159
254.33        79.35912
254.79         79.2439
255.25        85.29907
255.70        96.51986
256.16        111.4929
256.62        123.9538
257.07        124.4228
257.53         115.747
257.99          104.22
258.44        94.80659
258.90        91.69267
259.35        93.01163
259.81         96.8885
260.27        100.8823
260.72        102.1032
261.18        100.7335
261.63        97.68423
262.09        94.69562
262.55        92.72369
263.00        91.64021
263.46        91.20255
263.91        90.47932
264.37        88.89742
264.83        86.42389
265.28        83.43229
265.74        80.81226
266.19        79.16133
266.65        78.61847
267.11        78.74135
267.56        79.01329
268.02        78.66408
268.47        77.47407
268.93        75.75224
269.38         73.7437
269.84        71.91367
270.30        70.37991
270.75        68.98243
271.21        67.72662
271.66        66.53117
272.12        65.37122
272.57        64.25714
273.03        63.14331
273.48        61.90712
273.94        60.61917
274.39        59.26631
274.85        58.01341
275.31        56.89006
275.76        55.86936
276.22        54.98913
276.67        54.16304
277.13        53.42884
277.58        52.68856
278.04        51.96489
278.49        51.16794
278.95        50.33977
279.40        49.41747
279.86        48.51626
280.31         47.5436
280.77        46.53065
281.22        45.45022
281.68        44.41639
282.13        43.49944
282.59        42.92522
283.04        42.65279
283.50        42.64123
283.95        42.72137
284.41        42.65456
284.86        42.37536
285.32         41.9967
285.77        41.61077
286.22        41.44357
286.68        41.52736
287.13        41.72275
287.59        41.96179
288.04        42.07754
288.50        42.05942
288.95        41.93237
289.41        41.74178
289.86        41.44825
290.32        41.13592
290.77        40.81173
291.22        40.60148
291.68        40.66769
292.13        41.03028
292.59        41.67714
293.04        42.53623
293.50          43.511
293.95        44.54205
294.40        45.64642
294.86        46.83009
295.31        48.09013
295.77        49.43773
296.22        50.84649
296.68        52.31093
297.13        53.80546
297.58        55.34523
298.04        56.94311
298.49        58.63575
298.95        60.50402
299.40        62.52525
299.85        64.65948
300.31         66.8198
300.76        68.84306
301.21        70.70296
301.67        72.46021
302.12        74.13618
302.58        75.88045
303.03        77.67168
303.48        79.50854
303.94        81.38584
304.39        83.20618
304.84         84.9902
305.30        86.77934
305.75        88.55199
306.20        90.37968
306.66         92.2812
307.11        94.17883
307.57        96.03274
308.02        97.65575
308.47        99.04939
308.93        100.2662
309.38        101.3924
309.83        102.6957
310.29        104.2293
310.74        105.9185
311.19        107.5545
311.65        108.7661
312.10        109.4558
312.55        109.7344
313.00        109.9112
313.46        110.4666
313.91        111.4696
314.36        112.8044
314.82        114.1548
315.27        115.0252
315.72        115.2776
316.18         115.115
316.63        114.8034
317.08        114.8076
317.53        115.2533
317.99        115.9824
318.44        116.8291
318.89        117.4921
319.35         117.865
319.80        118.0429
320.25        118.1186
320.70        118.2358
321.16        118.4399
321.61        118.7295
322.06         119.018
322.51         119.188
322.97        119.2039
323.42        119.1105
323.87        119.0847
324.32        119.4306
324.78        120.1516
325.23        121.2387
325.68        122.2889
326.13        122.6426
326.59        122.1582
327.04        121.0779
327.49        119.8977
327.94        119.4379
328.39         119.899
328.85         121.002
329.30        122.4665
329.75        123.4857
330.20        123.7834
330.66        123.5636
331.11        123.1498
331.56         122.976
332.01        123.1966
332.46        123.6333
332.92        124.1189
333.37        124.5797
333.82        124.8898
334.27        125.1568
334.72        125.3786
335.17        125.5132
335.63        125.5716
336.08        125.6241
336.53        125.7866
336.98        126.3133
337.43        127.2383
337.88        128.4457
338.34        129.7325
338.79        130.8886
339.24        131.7385
339.69        132.3435
340.14        132.6435
340.59        132.5706
341.05        132.2095
341.50        131.6008
341.95        131.0342
342.40        130.9522
342.85        131.4443
343.30         132.385
343.75         133.523
344.20        134.4148
344.66        134.9172
345.11        135.1501
345.56        135.1922
346.01        135.1859
346.46        135.2133
346.91        135.2346
347.36        135.3056
347.81        135.5396
348.26         135.924
348.72         136.394
349.17        136.8686
349.62        137.2496
350.07        137.4856
350.52        137.6329
350.97        137.5337
351.42        136.9536
351.87        135.9221
352.32        134.5424
352.77        133.2562
353.22        132.7013
353.67        132.9714
354.13        133.8772
354.58        134.9238
355.03        135.2247
355.48         134.556
355.93         133.177
356.38        131.6187
356.83        130.6877
357.28        130.5474
357.73        130.9166
358.18        131.3414
358.63        131.1038
359.08        130.0283
359.53        128.3841
359.98        126.5504
360.43        125.0615
360.88        124.0476
361.33        123.3336
361.78        122.6924
362.23        121.7814
362.68        120.5315
363.13        119.0998
363.58         117.667
364.03        116.4805
364.48        115.5937
364.93        114.8962
365.38        114.2869
365.83         113.623
366.28        112.8527
366.73        112.0293
367.18        111.1549
367.63        110.2228
368.08        109.2483
368.53        108.2336
368.98        107.2351
369.43        106.3473
369.88        105.5906
370.33        104.9427
370.78        104.3542
371.23        103.7435
371.68        103.0797
372.13        102.3718
372.58        101.6436
373.03        100.9337
373.48         100.242
373.93        99.54752
374.38        98.80199
374.83        97.94199
375.28        96.97091
375.72         95.9092
376.17        94.89216
376.62        93.99794
377.07        93.26319
377.52        92.68829
377.97        92.21812
378.42        91.77525
378.87        91.33162
379.32        90.86327
379.77        90.47205
380.22        90.30763
380.67        90.35811
381.11        90.60313
381.56         90.6981
382.01        90.18066
382.46        89.02146
382.91        87.44985
383.36        85.93793
383.81        85.12987
384.26        85.11156
384.71        85.64884
385.15        86.39725
385.60        86.75328
386.05        86.52892
386.50        85.91066
386.95        85.03844
387.40        84.13949
387.85        83.33115
388.29        82.50816
388.74        81.83669
389.19        81.33689
389.64        80.99883
390.09        80.81589
390.54        80.70807
390.98        80.50838
391.43        80.21313
391.88        79.84502
392.33        79.46838
392.78        79.13324
393.23        78.84565
393.67        78.68096
394.12          78.637
394.57        78.24286
395.02        77.63241
395.47        77.54131
395.91        77.88641
396.36        77.84967
396.81        77.39864
397.26        76.97887
397.71        76.66135
398.15        76.32529
398.60         76.0748
399.05        75.89172
399.50         75.7298
399.95        75.53887
400.39        75.33552
400.84        75.01193
401.29        74.62424
401.74        74.52128
402.18        74.58471
402.63         74.0734
403.08        73.17754
403.53         72.8017
403.97        72.99483
404.42        73.27821
404.87        73.48306
405.32        73.49504
405.76        73.23205
406.21         72.8718
406.66        72.50002
407.11        71.98373
407.55        71.51839
408.00        71.67657
408.45        72.29018
408.90        72.40855
409.34        71.91518
409.79        71.32886
410.24        70.83867
410.68         70.5071
411.13        70.39746
411.58        70.47368
412.03        70.61128
412.47        70.60783
412.92        70.39018
413.37        70.05492
413.81        69.70853
414.26        69.57215
414.71        69.65777
415.15        69.91683
415.60        70.22487
416.05         70.4515
416.49        70.54388
416.94        70.52616
417.39        70.44668
417.83        70.36619
418.28        70.31273
418.73         70.2663
419.17         70.2178
419.62        70.15989
420.07        70.08326
420.51        69.97581
420.96        69.88715
421.41        69.80492
421.85        69.70157
422.30        69.72267
422.74        69.74444
423.19         69.5099
423.64        69.06911
424.08        68.88102
424.53        68.96243
424.98        69.00219
425.42        68.99489
425.87        69.18421
426.31         69.4839
426.76        69.42346
427.21        69.07557
427.65        68.96085
428.10        69.04533
428.54        69.02702
428.99        68.93671
429.44        68.61813
429.88        68.32226
430.33         68.8845
430.77        69.94356
431.22        70.59836
431.66        70.59958
432.11        69.80735
432.56        68.63688
433.00        68.24109
433.45        68.84421
433.89        69.81337
434.34        70.40442
434.78        70.92068
435.23        70.22175
435.67        68.14643
436.12        68.28696
436.57        68.41337
437.01        69.31718
437.46        69.55956
437.90        69.07352
438.35        68.71782
438.79        68.63373
439.24        68.65047
439.68        68.73851
440.13         69.1964
440.57        69.87624
441.02        69.72089
441.46        68.94934
441.91        69.48308
442.35         70.8139
442.80        70.61206
443.24        69.14444
443.69        68.90099
444.13        69.84887
444.58         70.2103
445.02        69.94199
445.47        70.01479
445.91        70.40883
446.36        70.68808
446.80         70.8111
447.24         70.8803
447.69        70.91253
448.13         70.9227
448.58        70.93606
449.02        70.91384
449.47        70.86162
449.91        70.76499
450.36         70.6506
450.80        70.50916
451.25        70.39367
451.69        70.32487
452.13        70.32146
452.58        70.36271
453.02         70.4149
453.47        70.43303
453.91        70.39517
454.36        70.32207
454.80        70.20268
455.24        69.99638
455.69        69.72313
456.13        69.43822
456.58        69.23069
457.02        68.92757
457.46        68.66999
457.91        68.89059
458.35        69.32141
458.79        69.30192
459.24        68.84694
459.68        68.05431
460.13        67.17101
460.57        67.38637
461.01         67.1362
461.46        67.56203
461.90        67.97761
462.34        68.59811
462.79        68.46536
463.23        68.42048
463.68        68.30123
464.12        68.27892
464.56        68.21394
465.01        67.41572
465.45        66.19685
465.89        65.78714
466.34        66.08405
466.78        66.38769
467.22        66.62646
467.67         65.8257
468.11        65.88969
468.55        65.88138
468.99        66.25413
469.44        66.28166
469.88        65.95732
470.32        65.70083
470.77        65.55885
471.21        65.44673
471.65        65.36401
472.10        65.33357
472.54        65.35365
472.98        65.36877
473.42        65.34773
473.87        65.49372
474.31          65.646
474.75         65.2061
475.20        64.38177
475.64        64.15196
476.08        64.55037
476.52        64.54115
476.97        64.02497
477.41        64.12788
477.85        65.01274
478.29        63.72593
478.74        64.27244
479.18        64.91738
479.62        64.63516
480.06        64.69803
480.50         64.4474
480.95        64.33549
481.39        64.40784
481.83        63.62656
482.27        63.91305
482.72        63.95276
483.16        64.02442
483.60        63.88916
484.04        64.03957
484.48        64.31917
484.93         64.7297
485.37        64.06029
485.81        63.56124
486.25        63.20679
486.69        65.07062
487.14        65.57674
487.58        64.28432
488.02         64.0369
488.46        62.89937
488.90        63.17842
489.34        63.92208
489.79        64.95345
490.23          64.438
490.67        63.83736
491.11        63.02828
491.55        62.76924
491.99        63.03967
492.43        62.97163
492.88        62.58553
493.32        62.55787
493.76        62.86228
494.20        63.06066
494.64        63.09684
495.08        63.09293
495.52        63.06799
495.96        63.00645
496.41        62.92311
496.85        62.94915
497.29        62.92722
497.73        62.79564
498.17        61.88155
498.61        61.72815
499.05        62.11167
499.49        62.46815
499.93         62.4591
500.37        62.65351
500.82        62.91839
501.26        62.75823
501.70        62.25398
502.14        62.40785
502.58        62.47217
503.02        62.61329
503.46        62.59698
503.90        62.74057
504.34        62.96886
504.78        63.00348
505.22        62.81627
505.66        62.51631
506.10        62.21423
506.54        61.99957
506.98        61.89523
507.42        62.16975
507.86        62.19457
508.30        62.31993
508.74        62.34167
509.18        62.31014
509.62        62.23223
510.06        62.12922
510.50        62.02275
510.94        61.89806
511.38        61.79313
511.82        61.77219
512.26        61.84417
512.70        61.99307
513.14        62.16578
513.58        62.27121
514.02        62.28502
514.46           62.23
514.90        62.14602
515.34         62.1018
515.78        62.11405
516.22        62.15537
516.66        62.20078
517.10        62.21141
517.54        62.17745
517.98        62.12138
518.42        62.04725
518.86         61.9586
519.30        61.86356
519.74        61.75847
520.18        61.67542
520.62        61.66348
521.06        61.72988
521.50        61.86711
521.93        62.01978
522.37        62.07582
522.81        62.02012
523.25        61.87604
523.69        61.72475
524.13        61.69672
524.57        61.80978
525.01         62.0126
525.45        62.20817
525.89        62.24016
526.32        62.07055
526.76        61.78088
527.20        61.44634
527.64        61.18722
528.08        61.04567
528.52        60.98287
528.96        60.99755
529.40         61.0882
529.83        61.23225
530.27        61.43145
530.71         61.6183
531.15        61.68836
531.59        61.62258
532.03        61.44854
532.46        61.22101
532.90        61.07629
533.34         61.0382
533.78        61.03603
534.22        61.04619
534.66        61.10472
535.09        61.15246
535.53        61.06496
535.97        60.86236
536.41        60.73389
536.85        60.69775
537.28         60.6431
537.72        60.60196
538.16        60.67442
538.60        60.85798
539.04        61.12056
539.47        61.36295
539.91        61.46794
540.35         61.4019
540.79        61.21583
541.22          60.991
541.66        60.87086
542.10        60.88452
542.54        60.99098
542.97        61.11637
543.41        61.17111
543.85        61.12191
544.29        61.01277
544.72        60.87186
545.16        60.77566
545.60        60.73635
546.04        60.73848
546.47        60.77871
546.91        60.86785
547.35        60.99443
547.79        61.09625
548.22        61.16164
548.66         61.2895
549.10        61.47578
549.53        61.39968
549.97        61.11638
550.41        60.86526
550.84        60.75031
551.28        60.71067
551.72        60.69728
552.15        60.83761
552.59        61.18158
553.03        60.57423
553.46        60.88174
553.90        60.75667
554.34        60.73544
554.77        60.67423
555.21        60.62556
555.65        60.65241
556.08         60.7268
556.52        60.89772
556.96        61.05924
557.39        60.98371
557.83        60.71532
558.27        60.46126
558.70        60.29186
559.14        60.23629
559.57        60.26913
560.01         60.3517
560.45        60.44051
560.88        60.50967
561.32        60.56887
561.75        60.60846
562.19        60.64244
562.63        60.57831
563.06         60.4649
563.50        60.52464
563.93        60.67704
564.37        60.77697
564.80        60.82459
565.24        60.74621
565.68        60.42836
566.11        61.03135
566.55        60.37814
566.98        60.16769
567.42        59.93534
567.85         60.1402
568.29        60.70235
568.72        61.10177
569.16        61.35765
569.60        61.44032
570.03         61.5226
570.47        61.59569
570.90         61.8355
571.34        60.87741
571.77        61.47406
572.21        61.75664
572.64        61.49759
573.08        61.93967
573.51        61.29138
573.95        61.20642
574.38        61.37265
574.82        61.81681
