SpectraSmart Spectrum 2.9.0.0
--------- Device Information -----------
Spectrum Name :  反射率_0
Saving Time :  2024/04/26 23:19:53
Spectro-Module Model Name : SE2030-DUVN
Spectro-Module Serial Number : OS361AC55029948
Wavelength Start : 200
Wavelength End : 1025
Wavelength Unit : Wavelength(nm)
Spectrum Unit : Reflectance(%)
-----------Spectrum Setting ------------
Integration Time : 20ms
Average : 10
Boxcar : 0
Background removal :  enabled
linearity correction :  enabled
SC :  disabled
Intensity correction :  disabled
DWT denoise :  enabled
savitzky-golay :  disabled
FFT :  disabled
Running average :  disabled
Kalman :  disabled
High pass :  disabled
---------------BEGIN--------------------
Wavelength(nm)             Reflectance(%)
200.29               0
200.75        40.10132
201.21         40.9458
201.67        41.77374
202.13        42.27811
202.58        42.46334
203.04        42.72278
203.50         43.5047
203.96        45.60439
204.42        49.25016
204.88        53.92457
205.34        58.39738
205.80        60.85669
206.26        60.73258
206.72         58.5681
207.18        55.64263
207.64        52.78514
208.10        49.95465
208.55        47.08719
209.01        43.56046
209.47        40.94266
209.93        40.87806
210.39        42.41471
210.85        45.02086
211.31        49.46466
211.77        57.54729
212.23        74.79293
212.69        115.7363
213.14        178.7571
213.60        165.5636
214.06        112.7562
214.52        79.98183
214.98        66.61572
215.44        62.19365
215.90         61.0418
216.36         61.6524
216.81        62.40414
217.27        62.87518
217.73        64.55343
218.19        65.86513
218.65        61.70256
219.11        53.48969
219.57        45.52575
220.02        41.29697
220.48        42.43756
220.94        48.36818
221.40        60.00817
221.86        76.67136
222.32        86.48947
222.77        80.08437
223.23        65.83536
223.69        52.51166
224.15         44.8618
224.61        41.75361
225.06        40.65144
225.52        40.78141
225.98        41.34991
226.44        42.03991
226.90        43.12951
227.36        44.02575
227.81        43.62506
228.27        42.01675
228.73        39.59718
229.19        37.38679
229.65         36.5605
230.10        37.12973
230.56        38.68594
231.02        40.41289
231.48        41.00509
231.93        40.20426
232.39        38.76423
232.85        37.34906
233.31        36.85615
233.77        37.38718
234.22        38.62375
234.68        40.15105
235.14        41.48018
235.60        42.44089
236.05        43.24057
236.51        43.90877
236.97         44.4553
237.43        44.90448
237.88         45.2143
238.34        45.54675
238.80        46.49394
239.26        48.37084
239.71        51.63646
240.17          55.995
240.63        60.47464
241.08        64.31052
241.54        66.84402
242.00        69.28677
242.46        74.81326
242.91        86.25067
243.37        105.5817
243.83        133.4942
244.28        157.8296
244.74        159.8773
245.20        138.8445
245.66        112.4892
246.11        97.13879
246.57        93.55498
247.03        97.13795
247.48        101.6029
247.94        97.27288
248.40         85.9606
248.85        73.89973
249.31          65.377
249.77         62.1176
250.22        63.28453
250.68        67.99069
251.14        75.01113
251.59        79.44971
252.05        78.60809
252.51        74.99255
252.96        70.67889
253.42        68.12432
253.88        67.29797
254.33        66.71909
254.79        67.52457
255.25        70.33839
255.70         74.7729
256.16        80.76624
256.62        85.48529
257.07        84.75508
257.53        80.20606
257.99        74.40639
258.44        69.86432
258.90        69.05203
259.35        70.67313
259.81        73.77375
260.27        76.41322
260.72        76.25911
261.18        73.72768
261.63        69.79041
262.09        66.23555
262.55        64.29861
263.00        63.81026
263.46        64.27309
263.91         64.6542
264.37         64.0414
264.83         62.3364
265.28        59.98639
265.74        57.80304
266.19        56.41904
266.65        55.97379
267.11        56.06176
267.56        56.24809
268.02        55.88671
268.47        54.80861
268.93        53.28962
269.38        51.56327
269.84        50.03383
270.30        48.80702
270.75          47.749
271.21        46.83478
271.66        45.96233
272.12        45.10099
272.57        44.27468
273.03        43.46383
273.48        42.60835
273.94        41.75442
274.39        40.86335
274.85        40.04028
275.31        39.28926
275.76         38.5875
276.22         37.9752
276.67        37.37904
277.13        36.79625
277.58        36.17256
278.04        35.54453
278.49        34.90572
278.95        34.37281
279.40        33.90358
279.86         33.5373
280.31        33.14354
280.77        32.65282
281.22        32.02097
281.68        31.34901
282.13        30.71645
282.59        30.32294
283.04        30.15605
283.50        30.18035
283.95        30.26471
284.41        30.21558
284.86        29.99438
285.32        29.70229
285.77        29.44402
286.22        29.43338
286.68        29.69728
287.13        30.10788
287.59        30.57351
288.04        30.90824
288.50        31.07815
288.95        31.10766
289.41        31.04536
289.86        30.88597
290.32        30.70491
290.77        30.51301
291.22        30.39568
291.68        30.46026
292.13        30.73505
292.59        31.23364
293.04        31.95683
293.50        32.91002
293.95        34.06288
294.40        35.40521
294.86        36.87731
295.31        38.37739
295.77         39.8802
296.22        41.37457
296.68        42.90442
297.13        44.53172
297.58        46.28247
298.04        48.14248
298.49        50.06271
298.95        51.98751
299.40         53.8858
299.85        55.77872
300.31        57.71412
300.76        59.73627
301.21        61.85846
301.67        64.07178
302.12        66.28107
302.58        68.44369
303.03        70.49387
303.48        72.48151
303.94        74.47314
304.39        76.49194
304.84        78.57655
305.30        80.71355
305.75        82.83134
306.20        84.92185
306.66        86.98945
307.11        89.00742
307.57        90.95931
308.02        92.69427
308.47        94.23242
308.93         95.6104
309.38        96.95031
309.83         98.5747
310.29        100.5277
310.74        102.7027
311.19        104.8052
311.65        106.3211
312.10        107.1193
312.55        107.3612
313.00        107.4175
313.46        107.8648
313.91        108.8152
314.36         110.133
314.82        111.5262
315.27        112.5329
315.72        113.0069
316.18        113.1336
316.63        113.1172
317.08        113.3241
317.53        113.8523
317.99        114.5633
318.44        115.3217
318.89        115.8838
319.35        116.1723
319.80        116.2806
320.25        116.3035
320.70        116.3851
321.16        116.5741
321.61         116.872
322.06        117.2163
322.51        117.5207
322.97        117.7454
323.42        117.9196
323.87        118.1513
324.32         118.638
324.78        119.3602
325.23        120.3313
325.68        121.2311
326.13        121.5497
326.59        121.1837
327.04        120.3275
327.49        119.3917
327.94        119.0614
328.39        119.5053
328.85        120.4912
329.30         121.792
329.75        122.6987
330.20        122.9711
330.66        122.7739
331.11        122.4177
331.56        122.3179
332.01        122.6137
332.46        123.1427
332.92        123.6913
333.37        124.1003
333.82        124.2348
334.27        124.2267
334.72        124.1749
335.17        124.2066
335.63        124.3767
336.08        124.7159
336.53         125.238
336.98        126.0205
337.43        127.0449
337.88        128.2367
338.34        129.4772
338.79        130.7042
339.24        131.7766
339.69        132.6961
340.14         133.309
340.59        133.4048
341.05         133.035
341.50        132.3001
341.95        131.5679
342.40        131.3905
342.85        131.9003
343.30        132.9505
343.75        134.2623
344.20        135.3496
344.66        136.0384
345.11        136.4304
345.56        136.6265
346.01        136.8047
346.46        137.0366
346.91        137.2715
347.36        137.4494
347.81        137.5061
348.26        137.4354
348.72        137.2651
349.17         137.136
349.62        137.2965
350.07        137.7684
350.52        138.4859
350.97        139.1122
351.42        139.1105
351.87        138.3987
352.32        137.1614
352.77        135.8698
353.22        135.2144
353.67        135.3302
354.13        136.0058
354.58        136.8298
355.03        137.0648
355.48        136.5219
355.93        135.4369
356.38        134.2372
356.83        133.5589
357.28        133.5245
357.73        133.8879
358.18        134.2777
358.63        134.1159
359.08        133.2501
359.53        131.8909
359.98         130.314
360.43        128.9037
360.88        127.7701
361.33        126.8043
361.78        125.8812
362.23        124.8183
362.68        123.5894
363.13        122.2933
363.58         121.057
364.03        120.0425
364.48        119.2712
364.93        118.6659
365.38        118.1043
365.83         117.409
366.28        116.5318
366.73        115.5254
367.18        114.4699
367.63        113.4874
368.08        112.6124
368.53        111.8124
368.98        111.0359
369.43        110.1986
369.88        109.2844
370.33        108.3281
370.78         107.393
371.23        106.5875
371.68        105.9343
372.13        105.3812
372.58        104.8676
373.03        104.2956
373.48        103.6236
373.93        102.8789
374.38        102.0463
374.83        101.1137
375.28         100.105
375.72        99.01466
376.17         97.9902
376.62        97.13071
377.07        96.47113
377.52        96.01315
377.97        95.66048
378.42        95.26328
378.87        94.78157
379.32        94.21079
379.77        93.71091
380.22        93.52248
380.67        93.64591
381.11          94.026
381.56        94.25566
382.01        93.76834
382.46        92.50843
382.91        90.75337
383.36        89.01954
383.81        88.00497
384.26        87.81975
384.71        88.22348
385.15        88.89325
385.60        89.25897
386.05        89.13647
386.50        88.69923
386.95        88.05476
387.40        87.37667
387.85         86.7552
388.29        86.07758
388.74        85.51263
389.19        85.08819
389.64        84.79448
390.09          84.615
390.54        84.46979
390.98        84.19406
391.43        83.80148
391.88        83.33675
392.33        82.86214
392.78        82.43922
393.23        82.08305
393.67        81.80318
394.12        81.65292
394.57         81.3745
395.02        81.03255
395.47        81.02425
395.91        81.24886
396.36        81.13381
396.81        80.66872
397.26        80.16322
397.71        79.70078
398.15        79.31108
398.60        79.11447
399.05        78.87354
399.50        78.62547
399.95        78.77017
400.39        79.14309
400.84        78.88381
401.29        78.05581
401.74        77.49992
402.18        77.28969
402.63         76.9218
403.08        76.46945
403.53        76.23258
403.97        76.21983
404.42        76.36284
404.87        76.52018
405.32        76.45523
405.76        76.11263
406.21        75.60088
406.66        75.07036
407.11        74.76192
407.55        74.75359
408.00        74.94619
408.45        75.22001
408.90        75.31681
409.34        75.15323
409.79        74.83147
410.24        74.45894
410.68        74.16058
411.13        73.98703
411.58        73.89046
412.03        73.81022
412.47        73.66251
412.92        73.41263
413.37        73.13256
413.81        72.88097
414.26         72.8046
414.71        72.89664
415.15        73.13806
415.60        73.42226
416.05        73.65051
416.49        73.78008
416.94        73.81435
417.39        73.79382
417.83        73.77427
418.28        73.77583
418.73        73.77571
419.17        73.75343
419.62        73.68456
420.07        73.56203
420.51        73.38293
420.96        73.20954
421.41        73.06807
421.85        72.94604
422.30        72.92423
422.74        72.89065
423.19        72.76189
423.64        72.51129
424.08        72.23646
424.53        72.02734
424.98        72.01892
425.42        72.24089
425.87         72.7059
426.31        73.21465
426.76         73.1993
427.21        72.71458
427.65        72.36575
428.10        72.22387
428.54        72.10562
428.99        72.08292
429.44        71.93269
429.88        71.83054
430.33        72.60368
430.77        73.79343
431.22        74.27215
431.66         73.9084
432.11        73.00236
432.56        71.99401
433.00         71.7896
433.45        72.53498
433.89        73.44141
434.34        73.79458
434.78        74.34607
435.23        73.84621
435.67        71.63718
436.12         72.2267
436.57        72.39652
437.01         73.1977
437.46        73.49713
437.90        73.29211
438.35        72.34688
438.79        72.49423
439.24        72.32341
439.68        72.33769
440.13        72.61565
440.57        73.09983
441.02        73.25826
441.46        73.10168
441.91        73.59851
442.35        74.40495
442.80        74.23427
443.24         73.2986
443.69        73.29314
444.13        74.11715
444.58        74.38544
445.02        74.05408
445.47        73.90867
445.91         74.0182
446.36        74.16591
446.80        74.34326
447.24        74.59672
447.69        74.87237
448.13        75.06392
448.58        75.15895
449.02        75.15339
449.47        75.08265
449.91        74.97462
450.36        74.87129
450.80        74.74406
451.25        74.63315
451.69        74.54052
452.13        74.48507
452.58        74.46022
453.02        74.45028
453.47        74.43514
453.91        74.39789
454.36        74.34845
454.80        74.26172
455.24        74.07458
455.69        73.79971
456.13        73.49757
456.58        73.25835
457.02          72.902
457.46        72.57034
457.91        72.71002
458.35        73.09019
458.79        72.99285
459.24        72.43452
459.68         71.7153
460.13        71.07748
460.57        70.79269
461.01        70.99109
461.46        71.09074
461.90        71.24728
462.34        72.29671
462.79        72.02805
463.23        72.24822
463.68        72.20782
464.12        72.02139
464.56        71.63017
465.01        70.82183
465.45        69.86169
465.89        69.57231
466.34        69.83099
466.78        70.06625
467.22        70.26772
467.67        69.51119
468.11        69.86948
468.55        69.88362
468.99        70.06123
469.44        69.95292
469.88        69.56422
470.32        69.13772
470.77         68.7667
471.21        68.53374
471.65        68.46565
472.10        68.55027
472.54        68.71114
472.98        68.80481
473.42         68.7803
473.87        68.77467
474.31        68.73034
474.75        68.42548
475.20        67.98801
475.64        67.85257
476.08         68.0078
476.52        67.94325
476.97        67.62012
477.41        67.49648
477.85        67.67886
478.29        67.21146
478.74        67.54202
479.18        67.79086
479.62        67.83106
480.06        67.88256
480.50        67.76775
480.95        67.72784
481.39        67.79775
481.83        67.25296
482.27        67.48801
482.72        67.42844
483.16        67.53265
483.60        67.35619
484.04        67.33945
484.48        67.57716
484.93        67.99498
485.37        67.40829
485.81        67.17545
486.25        66.71964
486.69        68.79607
487.14        69.81722
487.58        67.80252
488.02        67.86826
488.46        66.91186
488.90        66.47995
489.34        67.79466
489.79        68.56519
490.23        67.57867
490.67        66.95575
491.11        66.46127
491.55        66.28471
491.99        66.36034
492.43        66.22346
492.88        65.89661
493.32        65.83036
493.76        66.03509
494.20        66.22559
494.64         66.3611
495.08        66.54084
495.52        66.71088
495.96        66.72478
496.41        66.59386
496.85        66.49313
497.29        66.34074
497.73         66.2918
498.17        65.57905
498.61        65.44691
499.05        65.64743
499.49        65.92231
499.93        65.93184
500.37        66.00897
500.82        66.08124
501.26        65.84666
501.70        65.79871
502.14        65.77628
502.58        65.90989
503.02        65.99251
503.46        66.01651
503.90        66.12182
504.34        66.24579
504.78        66.20838
505.22        65.98404
505.66        65.66508
506.10        65.36189
506.54        65.12993
506.98        64.98431
507.42        65.27391
507.86        65.37305
508.30        65.34408
508.74        65.46999
509.18        65.40058
509.62        65.31166
510.06         65.2509
510.50        65.24287
510.94        65.25307
511.38        65.25486
511.82        65.22874
512.26        65.17931
512.70        65.09438
513.14        64.98746
513.58        64.97926
514.02         65.0996
514.46        64.91435
514.90        65.13352
515.34        65.16457
515.78         65.2097
516.22        65.25257
516.66        65.27774
517.10        65.24666
517.54        65.15282
517.98        65.01952
518.42        64.88108
518.86        64.79511
519.30        64.77637
519.74        64.80535
520.18         64.8658
520.62        64.92804
521.06        64.98092
521.50         65.0391
521.93        65.08691
522.37        65.07932
522.81         65.0212
523.25        64.91457
523.69        64.81508
524.13        64.81352
524.57        64.91829
525.01         65.0961
525.45        65.26328
525.89        65.28262
526.32        65.12133
526.76        64.84946
527.20        64.54171
527.64        64.32044
528.08        64.22327
528.52        64.21065
528.96        64.26283
529.40         64.3487
529.83        64.44361
530.27        64.56134
530.71        64.66218
531.15        64.68768
531.59        64.62997
532.03        64.50133
532.46        64.33611
532.90        64.23916
533.34        64.22256
533.78        64.22369
534.22        64.22049
534.66        64.25577
535.09        64.27135
535.53        64.13244
535.97        63.87234
536.41        63.70992
536.85        63.66816
537.28        63.62896
537.72        63.60831
538.16        63.68128
538.60        63.84055
539.04        64.06086
539.47        64.26305
539.91        64.36659
540.35         64.3411
540.79        64.21655
541.22        64.05455
541.66        63.97863
542.10         64.0075
542.54        64.09908
542.97        64.19643
543.41        64.23915
543.85         64.2019
544.29        64.12762
544.72        64.01595
545.16        63.90155
545.60        63.78936
546.04        63.67355
546.47        63.61026
546.91        63.69346
547.35        63.92196
547.79        64.23828
548.22        64.53056
548.66        64.66644
549.10        64.65669
549.53        64.40245
549.97        64.02818
550.41        63.70024
550.84        63.52537
551.28        63.62362
551.72        63.89939
552.15        64.04155
552.59         64.0379
553.03        63.95937
553.46        64.06995
553.90        64.05363
554.34        63.98881
554.77         63.8812
555.21        63.78321
555.65        63.81887
556.08        63.95956
556.52        64.02068
556.96        63.96723
557.39        64.00668
557.83        64.08692
558.27        63.80777
558.70        63.26893
559.14        63.05926
559.57        63.17681
560.01        63.20715
560.45        63.16313
560.88        63.37186
561.32        63.77302
561.75        64.00613
562.19        64.04553
562.63         63.9309
563.06        63.73281
563.50        63.69318
563.93        63.74286
564.37        63.69624
564.80        63.58276
565.24        63.42902
565.68        63.12993
566.11        63.79543
566.55        63.13573
566.98        63.06372
567.42        63.01465
567.85        63.13151
568.29        63.41469
568.72         63.7846
569.16         64.2486
569.60        64.43806
570.03        64.54394
570.47        64.67879
570.90        64.96023
571.34        64.25234
571.77        64.77621
572.21         64.9218
572.64        64.52359
573.08           65.18
573.51        64.26375
573.95         64.4197
574.38        64.95258
574.82        65.30937
