SpectraSmart Spectrum 2.9.0.0
--------- Device Information -----------
Spectrum Name :  反射率_0
Saving Time :  2024/04/26 23:23:01
Spectro-Module Model Name : SE2030-DUVN
Spectro-Module Serial Number : OS361AC55029948
Wavelength Start : 200
Wavelength End : 1025
Wavelength Unit : Wavelength(nm)
Spectrum Unit : Reflectance(%)
-----------Spectrum Setting ------------
Integration Time : 20ms
Average : 10
Boxcar : 0
Background removal :  enabled
linearity correction :  enabled
SC :  disabled
Intensity correction :  disabled
DWT denoise :  enabled
savitzky-golay :  disabled
FFT :  disabled
Running average :  disabled
Kalman :  disabled
High pass :  disabled
---------------BEGIN--------------------
Wavelength(nm)             Reflectance(%)
200.29               0
200.75        48.45414
201.21        46.56035
201.67        44.82635
202.13        43.40235
202.58        42.16795
203.04        41.11218
203.50        40.80747
203.96        42.70043
204.42        47.43569
204.88        54.59965
205.34        61.90606
205.80        65.48386
206.26        64.34065
206.72         59.7718
207.18        54.47899
207.64        50.47325
208.10        47.82976
208.55        46.52735
209.01        45.70151
209.47        44.67019
209.93        43.84716
210.39        43.49606
210.85        45.02135
211.31        50.62416
211.77        62.78741
212.23        89.68819
212.69        153.0784
213.14        244.1503
213.60        213.4814
214.06        128.6501
214.52        78.52406
214.98        58.52814
215.44        52.39547
215.90        51.97507
216.36        55.21379
216.81        60.28549
217.27         66.9108
217.73        78.00089
218.19        91.82056
218.65        95.39162
219.11        85.23867
219.57        70.32072
220.02        59.74118
220.48        57.74884
220.94        63.00573
221.40        75.64577
221.86        95.13188
222.32        108.3506
222.77        103.5872
223.23        89.40789
223.69        75.18092
224.15         66.1117
224.61        61.36275
225.06        58.53644
225.52        56.84526
225.98        55.23217
226.44        53.48942
226.90        51.98633
227.36        50.88849
227.81        50.44107
228.27        50.72395
228.73        51.24032
229.19        51.93664
229.65        52.86535
230.10        53.90164
230.56        55.07148
231.02        55.71143
231.48        54.83292
231.93        52.47967
232.39        49.46228
232.85        46.73569
233.31        45.57114
233.77        46.03395
234.22        47.66845
234.68        49.78666
235.14         51.3963
235.60        52.18262
236.05        52.52586
236.51        52.48071
236.97        52.22698
237.43        51.94919
237.88        51.54817
238.34        51.51168
238.80        53.01229
239.26        56.57982
239.71        62.92094
240.17        71.33688
240.63        79.11338
241.08        84.23472
241.54        85.75358
242.00        85.84975
242.46        90.25883
242.91        103.1705
243.37        126.5083
243.83        161.3643
244.28        192.7536
244.74        196.9992
245.20        173.7366
245.66        141.8799
246.11        118.5993
246.57        105.3694
247.03         97.2385
247.48        92.06068
247.94        87.93507
248.40        84.92373
248.85        83.53419
249.31        83.50809
249.77        83.77355
250.22        83.92109
250.68        83.51437
251.14        82.48466
251.59        81.26242
252.05        80.54715
252.51        80.94171
252.96        80.54174
253.42        77.96127
253.88        73.65903
254.33        68.29441
254.79        65.19286
255.25        66.84477
255.70        72.59613
256.16        81.18685
256.62        88.33781
257.07        87.87364
257.53        81.66705
257.99        73.66075
258.44        67.17574
258.90         65.0741
259.35        65.94814
259.81        68.54591
260.27        70.85361
260.72        70.50404
261.18        67.86197
261.63        63.93284
262.09        60.42301
262.55        58.51347
263.00        58.03703
263.46        58.48688
263.91        58.87496
264.37         58.3136
264.83        56.71188
265.28        54.50221
265.74        52.45592
266.19         51.1891
266.65        50.82941
267.11        50.98341
267.56        51.24453
268.02        50.99831
268.47        50.09185
268.93        48.80927
269.38        47.33624
269.84        46.00172
270.30        44.90154
270.75        43.89888
271.21        43.08112
271.66        42.53066
272.12        42.21597
272.57        42.08463
273.03        41.88076
273.48        41.17286
273.94        39.96566
274.39        38.40024
274.85        36.85224
275.31        35.69889
275.76        34.99607
276.22        34.64873
276.67        34.46529
277.13        34.26371
277.58        33.92822
278.04        33.53958
278.49        33.08779
278.95        32.67452
279.40        32.26144
279.86        31.87577
280.31        31.41373
280.77           30.85
281.22        30.16009
281.68        29.44492
282.13        28.78009
282.59        28.34552
283.04        28.13097
283.50        28.10738
283.95        28.16117
284.41         28.1244
284.86        27.95358
285.32        27.72154
285.77        27.50585
286.22        27.48126
286.68        27.66414
287.13        27.94529
287.59        28.23166
288.04        28.33902
288.50        28.25254
288.95        28.01635
289.41        27.71838
289.86        27.41645
290.32         27.1846
290.77        27.00196
291.22        26.91778
291.68        26.98658
292.13        27.21294
292.59        27.61814
293.04        28.17393
293.50        28.84338
293.95         29.6022
294.40        30.45772
294.86        31.42434
295.31        32.51822
295.77         33.7423
296.22         35.0648
296.68        36.45912
297.13        37.87516
297.58        39.30829
298.04        40.77099
298.49        42.28374
298.95        43.89711
299.40        45.60506
299.85        47.39684
300.31        49.23352
300.76        51.03494
301.21        52.79757
301.67        54.56251
302.12        56.35369
302.58        58.29161
303.03        60.34555
303.48        62.50005
303.94        64.70789
304.39        66.83531
304.84        68.88367
305.30        70.89516
305.75        72.87517
306.20        74.92487
306.66        77.06369
307.11        79.20685
307.57        81.29897
308.02        83.15157
308.47        84.75987
308.93        86.18522
309.38        87.51173
309.83        88.98564
310.29        90.66287
310.74        92.47538
311.19         94.2514
311.65        95.67867
312.10         96.6631
312.55        97.28828
313.00         97.7976
313.46        98.57671
313.91        99.68139
314.36        101.0219
314.82        102.3398
315.27        103.2317
315.72        103.5852
316.18        103.5717
316.63        103.4196
317.08        103.5289
317.53        104.0131
317.99        104.7478
318.44        105.5896
318.89        106.2714
319.35        106.7012
319.80        106.9572
320.25         107.141
320.70        107.4137
321.16        107.8117
321.61        108.3144
322.06        108.7924
322.51        109.0565
322.97        109.0569
323.42        108.8665
323.87        108.6907
324.32        108.8788
324.78        109.4667
325.23        110.4344
325.68        111.4292
326.13        111.8652
326.59        111.6073
327.04        110.8703
327.49        110.0637
327.94        109.8696
328.39        110.4545
328.85        111.5699
329.30        112.9848
329.75        114.0131
330.20        114.4108
330.66        114.3375
331.11        114.0628
331.56        113.9446
332.01        114.1152
332.46        114.4339
332.92        114.7581
333.37         115.036
333.82        115.1737
334.27        115.2818
334.72        115.3935
335.17        115.5227
335.63        115.6885
336.08         115.937
336.53        116.3451
336.98        117.0925
337.43        118.1869
337.88        119.5318
338.34        120.9146
338.79          122.11
339.24        122.9485
339.69        123.4772
340.14        123.7082
340.59        123.6923
341.05        123.5331
341.50        123.2544
341.95        123.0102
342.40        123.0287
342.85        123.3691
343.30        123.9685
343.75        124.7729
344.20        125.6619
344.66        126.5569
345.11        127.4692
345.56        128.2374
346.01        128.6275
346.46         128.633
346.91        128.3301
347.36        127.9845
347.81        128.0358
348.26        128.5563
348.72        129.3835
349.17        130.2787
349.62        130.8945
350.07        131.1216
350.52        131.1061
350.97        130.8383
351.42        130.3092
351.87        129.5961
352.32        128.7123
352.77         127.957
353.22        127.7688
353.67        128.1991
354.13        129.1267
354.58        130.1557
355.03        130.5613
355.48        130.1562
355.93        129.1283
356.38        127.9298
356.83        127.2615
357.28        127.2556
357.73        127.6678
358.18        128.0737
358.63        127.7934
359.08        126.6848
359.53        125.0334
359.98        123.2196
360.43        121.7792
360.88        120.8494
361.33        120.2466
361.78        119.8058
362.23        119.2774
362.68        118.5739
363.13        117.7937
363.58        116.9503
364.03        116.0392
364.48         115.072
364.93        114.0267
365.38         112.966
365.83        112.0232
366.28        111.2341
366.73        110.5732
367.18        109.9752
367.63        109.3189
368.08        108.5706
368.53        107.7719
368.98        106.9514
369.43        106.1526
369.88        105.3925
370.33        104.6475
370.78        103.9302
371.23        103.2762
371.68        102.6845
372.13        102.1386
372.58        101.5993
373.03        100.9954
373.48        100.3038
373.93        99.54508
374.38        98.72521
374.83        97.86663
375.28         96.9913
375.72        96.07674
376.17        95.22938
376.62        94.48915
377.07        93.87542
377.52        93.40617
377.97         93.0005
378.42         92.5369
378.87        91.99257
379.32        91.36222
379.77        90.81784
380.22         90.6156
380.67        90.76042
381.11        91.19861
381.56        91.52077
382.01        91.14301
382.46        90.00012
382.91        88.37005
383.36        86.76408
383.81        85.87968
384.26        85.82921
384.71        86.36547
385.15         87.1697
385.60        87.68211
386.05        87.70532
386.50        87.39271
386.95        86.82652
387.40        86.14481
387.85        85.43748
388.29        84.62267
388.74        83.87918
389.19        83.24365
389.64         82.7237
390.09        82.31247
390.54        81.98364
390.98        81.66089
391.43         81.3642
391.88        81.09454
392.33        80.84616
392.78        80.58253
393.23        80.29492
393.67        80.02676
394.12         79.8392
394.57        79.49376
395.02        79.06744
395.47        78.94262
395.91        79.06799
396.36        78.95845
396.81        78.61459
397.26        78.32352
397.71        78.07256
398.15        77.75047
398.60        77.46032
399.05        77.00905
399.50        76.54369
399.95        76.63384
400.39        77.13831
400.84        77.12046
401.29        76.54928
401.74        76.14466
402.18        75.94137
402.63        75.46464
403.08        74.85989
403.53        74.55138
403.97        74.57127
404.42        74.80192
404.87        75.07189
405.32        75.05495
405.76        74.66764
406.21        74.18487
406.66        73.72756
407.11        73.16935
407.55         72.7402
408.00         73.0694
408.45        73.94604
408.90        74.29279
409.34        73.92979
409.79        73.34591
410.24        72.77197
410.68        72.39977
411.13        72.31438
411.58           72.41
412.03        72.56281
412.47        72.60444
412.92        72.45469
413.37        72.19568
413.81        71.91675
414.26        71.81532
414.71         71.8978
415.15        72.12867
415.60        72.37975
416.05        72.51856
416.49        72.50819
416.94        72.38506
417.39         72.2364
417.83          72.184
418.28        72.25786
418.73        72.39988
419.17        72.56845
419.62        72.70401
420.07        72.77747
420.51        72.79592
420.96        72.76201
421.41        72.64021
421.85        72.42876
422.30        72.15987
422.74        71.85093
423.19        71.79163
423.64        71.89221
424.08        71.77327
424.53         71.5063
424.98        71.54324
425.42         71.9048
425.87         72.4834
426.31        73.03783
426.76         72.8401
427.21        72.03918
427.65        71.70581
428.10        71.89892
428.54        71.92516
428.99        71.82744
429.44        71.82618
429.88        71.98643
430.33        72.50342
430.77        73.09982
431.22        73.44162
431.66        73.38696
432.11        72.67004
432.56        71.59658
433.00         71.4179
433.45         72.3707
433.89        73.19241
434.34        73.00932
434.78        75.12698
435.23        73.30724
435.67        71.61617
436.12        72.08873
436.57        72.23686
437.01        72.79377
437.46        73.31759
437.90        72.95182
438.35        72.30734
438.79        72.53292
439.24         72.4849
439.68        72.52406
440.13          72.797
440.57         73.2685
441.02        73.33368
441.46        73.06695
441.91        73.64291
442.35        74.64075
442.80        74.48257
443.24        73.38962
443.69         73.2657
444.13         74.0729
444.58          74.398
445.02        74.20708
445.47        74.30767
445.91        74.68918
446.36        74.97417
446.80         75.1199
447.24        75.25422
447.69        75.40175
448.13        75.37747
448.58        75.52838
449.02        75.55777
449.47        75.55404
449.91        75.46742
450.36        75.32772
450.80        75.13328
451.25        74.96155
451.69          74.875
452.13        74.90273
452.58         75.0118
453.02        75.15055
453.47        75.24378
453.91        75.25379
454.36        75.20819
454.80        75.10425
455.24        74.87531
455.69        74.53828
456.13        74.24004
456.58         74.0771
457.02        73.53909
457.46        73.21157
457.91        73.43935
458.35        74.05111
458.79        74.06351
459.24        73.50046
459.68        72.71261
460.13        71.97912
460.57        71.77953
461.01        72.29062
461.46        71.99651
461.90        72.84733
462.34        73.56139
462.79        73.33511
463.23        73.49199
463.68        73.53234
464.12        73.26974
464.56        72.70413
465.01        71.88472
465.45           71.04
465.89        70.99652
466.34        71.55224
466.78        71.72114
467.22        71.48454
467.67        71.07104
468.11        71.16976
468.55        71.30904
468.99        71.54894
469.44        71.49956
469.88        71.14819
470.32        70.76297
470.77        70.43812
471.21        70.19962
471.65         70.0727
472.10        70.06521
472.54         70.1208
472.98        70.12334
473.42        70.03453
473.87         70.0006
474.31        69.96577
474.75        69.67036
475.20        69.23003
475.64        69.20923
476.08        69.61407
476.52        69.60601
476.97        69.06961
477.41        69.53575
477.85        69.65149
478.29        68.82029
478.74         69.7012
479.18        69.81499
479.62        69.44392
480.06        69.32083
480.50        69.25443
480.95         69.2923
481.39        69.44273
481.83        68.94982
482.27        68.84879
482.72        69.38915
483.16        69.21423
483.60         68.8819
484.04        69.10728
484.48         69.3526
484.93        69.44682
485.37        69.04455
485.81        68.91716
486.25        68.26902
486.69        70.67191
487.14        71.93894
487.58        69.93839
488.02        69.79982
488.46         68.1313
488.90        68.34025
489.34        69.31873
489.79        70.31665
490.23        69.49041
490.67        68.86168
491.11        68.27616
491.55        68.03811
491.99        68.26884
492.43        68.18605
492.88        67.84864
493.32        67.81181
493.76        68.08269
494.20        68.27457
494.64         68.3392
495.08        68.51196
495.52        68.68952
495.96        68.46835
496.41         67.9748
496.85          67.767
497.29        67.78056
497.73        68.08495
498.17        67.74429
498.61        67.57099
499.05        67.38123
499.49        67.60031
499.93        67.89845
500.37        68.12753
500.82         68.2011
501.26        68.20181
501.70        68.06748
502.14        68.56949
502.58        68.08618
503.02        68.13346
503.46        68.24226
503.90        68.28493
504.34        68.41769
504.78        68.36224
505.22        68.16743
505.66        67.91359
506.10        67.71418
506.54        67.49045
506.98        67.21769
507.42        67.69992
507.86         67.6928
508.30        67.45586
508.74        67.67313
509.18        67.54784
509.62        67.41733
510.06        67.30656
510.50        67.25219
510.94        67.21195
511.38        67.19139
511.82        67.23014
512.26        67.32436
512.70        67.46505
513.14        67.60492
513.58        67.68184
514.02        67.68309
514.46        67.59202
514.90        67.44553
515.34         67.4846
515.78        67.44581
516.22        67.52238
516.66        67.59554
517.10        67.61434
517.54        67.56252
517.98        67.47289
518.42        67.35578
518.86        67.21749
519.30        67.07359
519.74        66.92267
520.18        66.80958
520.62        66.80283
521.06        66.91186
521.50        67.12191
521.93        67.36274
522.37        67.49465
522.81         67.4923
523.25        67.38321
523.69        67.25068
524.13        67.23138
524.57        67.34637
525.01        67.54107
525.45        67.72413
525.89        67.74908
526.32        67.58003
526.76        67.30039
527.20        66.97729
527.64        66.71717
528.08         66.5605
528.52        66.47298
528.96        66.46551
529.40        66.55541
529.83        66.72261
530.27        66.96202
530.71         67.1906
531.15        67.28036
531.59        67.20586
532.03          67.001
532.46         66.7319
532.90        66.55665
533.34        66.50423
533.78        66.49551
534.22        66.49799
534.66         66.5413
535.09         66.5592
535.53        66.41876
535.97        66.15501
536.41        65.99233
536.85        65.95523
537.28        65.92207
537.72        65.90768
538.16        65.98921
538.60         66.1591
539.04        66.38833
539.47        66.60392
539.91        66.73762
540.35        66.75611
540.79        66.68291
541.22        66.55972
541.66         66.4785
542.10         66.4563
542.54        66.47004
542.97        66.48359
543.41        66.47038
543.85        66.41541
544.29        66.34785
544.72         66.2739
545.16        66.23792
545.60        66.23743
546.04        66.26582
546.47        66.33379
546.91        66.45252
547.35        66.60764
547.79        66.78821
548.22        66.95013
548.66        67.01017
549.10        67.02728
549.53        66.99409
549.97        66.93716
550.41         66.7224
550.84         66.4265
551.28        66.32317
551.72        66.40023
552.15        66.29927
552.59        66.50736
553.03        66.17072
553.46        66.58508
553.90        66.60288
554.34        66.55949
554.77        66.49898
555.21        66.43677
555.65        66.44881
556.08        66.51644
556.52        66.57928
556.96        66.60326
557.39        66.71173
557.83        66.84805
558.27        66.65316
558.70        66.20908
559.14        66.05473
559.57        66.17124
560.01        66.17302
560.45        66.08819
560.88        66.18973
561.32        66.45605
561.75        66.73268
562.19        66.93437
562.63        66.72835
563.06        66.24608
563.50        66.18218
563.93        66.44432
564.37        66.47485
564.80         66.2977
565.24        66.14364
565.68        65.88531
566.11        66.60172
566.55        65.90807
566.98        65.73029
567.42        65.53956
567.85        65.80681
568.29        66.44049
568.72        66.82903
569.16         67.0263
569.60        67.22144
570.03        67.36481
570.47        67.60938
570.90        68.05276
571.34         67.0807
571.77        67.74012
572.21        68.10342
572.64        67.95115
573.08        68.13986
573.51        67.21249
573.95        67.28812
574.38        68.07961
574.82        68.07565
