SpectraSmart Spectrum 2.9.0.0
--------- Device Information -----------
Spectrum Name :  反射率_0
Saving Time :  2024/04/26 23:19:02
Spectro-Module Model Name : SE2030-DUVN
Spectro-Module Serial Number : OS361AC55029948
Wavelength Start : 200
Wavelength End : 1025
Wavelength Unit : Wavelength(nm)
Spectrum Unit : Reflectance(%)
-----------Spectrum Setting ------------
Integration Time : 20ms
Average : 10
Boxcar : 0
Background removal :  enabled
linearity correction :  enabled
SC :  disabled
Intensity correction :  disabled
DWT denoise :  enabled
savitzky-golay :  disabled
FFT :  disabled
Running average :  disabled
Kalman :  disabled
High pass :  disabled
---------------BEGIN--------------------
Wavelength(nm)             Reflectance(%)
200.29               0
200.75        46.46519
201.21        44.12888
201.67         42.4104
202.13        42.10696
202.58        43.17793
203.04        45.78296
203.50        49.93197
203.96        54.40768
204.42        57.95535
204.88        60.46068
205.34        61.17746
205.80        59.85559
206.26        56.90311
206.72        52.48803
207.18        48.47719
207.64        46.18184
208.10         45.5036
208.55        47.06277
209.01        49.07395
209.47        46.77858
209.93        40.39058
210.39        33.83287
210.85        30.66444
211.31        32.96184
211.77        42.15658
212.23        65.21914
212.69        123.0692
213.14        214.9161
213.60        202.0349
214.06        129.5814
214.52        83.97343
214.98        66.56758
215.44        62.75489
215.90        64.14845
216.36        67.70208
216.81        69.70605
217.27        68.96286
217.73        67.50563
218.19          64.328
218.65        57.95991
219.11         51.7401
219.57        47.27783
220.02        46.07874
220.48        49.49621
220.94        57.59916
221.40        72.17455
221.86        92.97073
222.32        106.7596
222.77        101.6996
223.23        86.22952
223.69        70.76169
224.15        61.36884
224.61        56.86831
225.06        54.41903
225.52        52.90233
225.98        50.86575
226.44        48.08682
226.90        45.22996
227.36        42.34328
227.81        39.62941
228.27        37.54911
228.73        35.89083
229.19        35.21275
229.65        36.21738
230.10        38.68191
230.56        42.25327
231.02        45.61231
231.48        46.61628
231.93        44.96601
232.39        41.82792
232.85        38.54507
233.31        36.88241
233.77        37.06032
234.22        38.47974
234.68        40.45532
235.14        42.04198
235.60        42.91871
236.05        43.47863
236.51        43.78789
236.97        43.91426
237.43        43.98317
237.88        43.93061
238.34        44.10657
238.80        45.45596
239.26        48.45044
239.71        53.66677
240.17        60.80684
240.63        68.32349
241.08         74.8704
241.54        79.51751
242.00        83.44559
242.46        90.39482
242.91        103.6694
243.37        124.9966
243.83        154.8996
244.28        180.0752
244.74        180.3106
245.20        155.8116
245.66        125.7591
246.11        106.8561
246.57        99.67928
247.03        99.32937
247.48        100.5675
247.94        95.72726
248.40        86.30244
248.85        77.18237
249.31        70.87289
249.77         67.8418
250.22        67.22404
250.68        67.78384
251.14        69.64318
251.59        72.72987
252.05        76.15448
252.51        79.91821
252.96        80.98058
253.42        77.21814
253.88        69.96873
254.33         60.9239
254.79        54.54457
255.25        54.38916
255.70        59.73321
256.16        68.67092
256.62        76.96123
257.07        78.21684
257.53        73.71431
257.99        67.33196
258.44        61.89929
258.90        59.90697
259.35        60.27747
259.81        61.99238
260.27         63.7332
260.72        64.00937
261.18        62.96746
261.63        61.04613
262.09        59.22226
262.55        57.97468
263.00        57.20481
263.46        56.79027
263.91        56.18462
264.37        55.04648
264.83        53.37163
265.28        51.38828
265.74        49.62973
266.19         48.4295
266.65        47.87577
267.11        47.70119
267.56        47.65514
268.02         47.3576
268.47        46.69222
268.93        45.81348
269.38        44.76795
269.84        43.68362
270.30        42.60428
270.75        41.48156
271.21        40.42879
271.66        39.56541
272.12        38.90546
272.57        38.39584
273.03         37.9098
273.48        37.22119
273.94        36.34555
274.39        35.34549
274.85         34.3916
275.31        33.58525
275.76        32.93223
276.22        32.41187
276.67        31.98278
277.13        31.67562
277.58        31.42083
278.04        31.23226
278.49        30.97507
278.95        30.56516
279.40        29.95101
279.86        29.24047
280.31        28.49109
280.77         27.8868
281.22        27.42627
281.68        27.11345
282.13        26.86757
282.59        26.65361
283.04        26.42691
283.50        26.22131
283.95        26.04804
284.41        25.93722
284.86        25.88624
285.32        25.89274
285.77        25.90896
286.22        25.93173
286.68        25.95586
287.13        25.95036
287.59        25.93843
288.04        25.91173
288.50        25.89079
288.95        25.85308
289.41        25.80145
289.86        25.67577
290.32        25.51661
290.77        25.34761
291.22        25.24519
291.68        25.30307
292.13         25.5405
292.59        25.95565
293.04        26.52464
293.50        27.22404
293.95        28.02294
294.40        28.92032
294.86        29.90399
295.31        30.94564
295.77        32.04299
296.22        33.18975
296.68        34.37898
297.13        35.58984
297.58        36.83776
298.04        38.13446
298.49        39.52474
298.95        41.09622
299.40        42.83434
299.85        44.69287
300.31        46.58646
300.76        48.36873
301.21        50.00809
301.67        51.56059
302.12         53.0379
302.58        54.54301
303.03        56.07138
303.48        57.63537
303.94         59.2617
304.39        60.92825
304.84        62.65738
305.30        64.46257
305.75        66.30466
306.20        68.20172
306.66        70.14761
307.11        72.08666
307.57        73.97516
308.02        75.65247
308.47        77.12186
308.93        78.43207
309.38        79.66755
309.83        81.07304
310.29        82.69553
310.74        84.45448
311.19        86.18583
311.65        87.58913
312.10        88.57055
312.55        89.22179
313.00        89.72933
313.46        90.39067
313.91        91.26366
314.36        92.28706
314.82        93.32993
315.27        94.19485
315.72        94.80339
316.18        95.24628
316.63        95.58928
317.08        95.97946
317.53        96.46433
317.99        96.98801
318.44        97.51498
318.89        97.96322
319.35        98.30206
319.80        98.55952
320.25        98.77468
320.70        99.00864
321.16        99.27719
321.61        99.60553
322.06        99.92722
322.51        100.1443
322.97        100.2271
323.42        100.2047
323.87        100.2233
324.32        100.5408
324.78        101.1651
325.23        102.0948
325.68        102.9979
326.13         103.329
326.59        102.9697
327.04        102.1136
327.49        101.1845
327.94        100.8832
328.39        101.3776
328.85        102.4361
329.30        103.7811
329.75        104.6574
330.20        104.8213
330.66        104.4688
331.11        103.9583
331.56        103.7944
332.01        104.1382
332.46         104.799
332.92        105.5485
333.37        106.1693
333.82        106.5018
334.27        106.6805
334.72        106.7564
335.17        106.7856
335.63        106.8141
336.08        106.8751
336.53        107.0624
336.98        107.5856
337.43        108.4688
337.88        109.6264
338.34        110.8731
338.79        112.0006
339.24        112.8482
339.69        113.4641
340.14        113.8096
340.59        113.8548
341.05        113.6763
341.50        113.3008
341.95        112.9523
342.40        112.9721
342.85        113.4387
343.30        114.2675
343.75        115.2801
344.20        116.1559
344.66        116.7806
345.11        117.2207
345.56        117.5194
346.01        117.7618
346.46        117.9961
346.91        118.1988
347.36         118.378
347.81         118.571
348.26        118.7749
348.72        118.9644
349.17        119.1664
349.62        119.4501
350.07        119.8064
350.52        120.2409
350.97        120.5338
351.42        120.3362
351.87        119.6281
352.32        118.5411
352.77        117.4989
353.22        117.1218
353.67        117.5127
354.13        118.4781
354.58        119.5807
355.03         120.043
355.48        119.6555
355.93        118.6436
356.38         117.449
356.83        116.7424
357.28        116.6647
357.73        116.9833
358.18        117.3269
358.63        117.1089
359.08        116.1955
359.53        114.8213
359.98        113.3136
360.43        112.1285
360.88        111.3783
361.33        110.9131
361.78        110.5424
362.23        109.9779
362.68        109.1478
363.13        108.1669
363.58        107.1635
364.03        106.3149
364.48        105.6577
364.93        105.1095
365.38        104.5864
365.83        103.9734
366.28        103.2413
366.73        102.4436
367.18          101.62
367.63        100.8202
368.08        100.0663
368.53         99.3437
368.98         98.6582
369.43        98.02075
369.88        97.42423
370.33        96.85927
370.78        96.30756
371.23        95.74145
371.68        95.15242
372.13        94.54812
372.58        93.92284
373.03        93.26773
373.48        92.58331
373.93        91.86852
374.38        91.15699
374.83        90.50822
375.28        89.93396
375.72        89.40061
376.17        88.90968
376.62        88.35243
377.07        87.72488
377.52        87.07925
377.97        86.46577
378.42        85.98044
378.87        85.64227
379.32        85.37695
379.77        85.20164
380.22         85.1424
380.67        85.16275
381.11        85.28268
381.56        85.24166
382.01        84.71011
382.46        83.68552
382.91        82.34224
383.36        81.05804
383.81        80.34707
384.26        80.27882
384.71        80.67651
385.15        81.26846
385.60        81.57094
386.05        81.43317
386.50        80.99585
386.95        80.37302
387.40        79.75208
387.85        79.21712
388.29        78.66209
388.74        78.20894
389.19        77.83463
389.64        77.52456
390.09        77.27745
390.54        77.05962
390.98        76.78715
391.43        76.48865
391.88        76.18002
392.33        75.87264
392.78        75.57934
393.23        75.30658
393.67        75.02277
394.12        74.82068
394.57        74.66328
395.02         74.5568
395.47        74.53973
395.91        74.56195
396.36        74.45127
396.81        74.21697
397.26        73.93893
397.71        73.65089
398.15        73.41408
398.60        73.33304
399.05         73.1389
399.50        72.88447
399.95        73.09455
400.39        73.58371
400.84        73.23225
401.29        72.17123
401.74        71.69889
402.18        71.83204
402.63        71.52482
403.08        70.86342
403.53        70.59933
403.97        70.75369
404.42        70.99932
404.87        71.19906
405.32        71.24002
405.76        71.06771
406.21         70.7478
406.66          70.388
407.11        70.19799
407.55        70.25009
408.00        70.36942
408.45        70.49021
408.90        70.68553
409.34        70.79451
409.79        70.38488
410.24        69.66502
410.68        69.32562
411.13        69.44003
411.58        69.67026
412.03        69.85229
412.47        69.84861
412.92        69.58266
413.37        69.14048
413.81        68.69406
414.26        68.55579
414.71        68.74883
415.15        69.20179
415.60        69.71707
416.05        70.02177
416.49        70.03153
416.94        69.83263
417.39        69.54372
417.83        69.33376
418.28         69.2657
418.73        69.27578
419.17        69.36371
419.62        69.53606
420.07        69.75813
420.51        70.00458
420.96        70.22073
421.41        70.24012
421.85        70.02268
422.30        69.75548
422.74        69.45097
423.19        69.10039
423.64        68.78205
424.08        68.79539
424.53        69.10209
424.98        69.41352
425.42          69.696
425.87        70.06483
426.31        70.42941
426.76        70.58704
427.21         70.5006
427.65        70.11682
428.10         69.6013
428.54        69.40697
428.99        69.62918
429.44        69.84724
429.88        70.05855
430.33        70.70744
430.77        71.47078
431.22        71.74541
431.66        71.49689
432.11        70.94482
432.56        70.35017
433.00        70.29914
433.45        70.86842
433.89        71.37852
434.34         71.3358
434.78        72.19071
435.23        71.59219
435.67        70.31685
436.12        71.09521
436.57        71.29659
437.01        71.68214
437.46        71.95184
437.90        71.52983
438.35        71.18405
438.79        70.89576
439.24        70.84101
439.68        71.01629
440.13        71.50366
440.57        72.17552
441.02         72.3388
441.46        72.03117
441.91        72.40474
442.35        73.15534
442.80        72.88428
443.24        71.85153
443.69        71.93526
444.13        73.00362
444.58        73.47011
445.02        73.26404
445.47        73.25796
445.91        73.49943
446.36        73.70405
446.80        73.86292
447.24        74.04608
447.69        74.22465
448.13        74.33785
448.58        74.39165
449.02        74.36846
449.47        74.32475
449.91        74.31744
450.36        74.38308
450.80        74.48451
451.25        74.59363
451.69        74.60863
452.13        74.52882
452.58        74.36961
453.02        74.20597
453.47        74.16617
453.91        74.27028
454.36        74.49258
454.80        74.69671
455.24        74.65785
455.69        74.35546
456.13        73.85128
456.58        73.37901
457.02        73.08212
457.46        73.07976
457.91        73.50318
458.35        74.02638
458.79        73.99387
459.24        73.39613
459.68        72.47151
460.13        71.60989
460.57        71.22903
461.01        71.46896
461.46        71.88537
461.90        72.70595
462.34        73.23948
462.79        73.46078
463.23        73.47676
463.68        73.25636
464.12        72.87581
464.56        72.36681
465.01        71.62695
465.45        70.80922
465.89        70.59501
466.34        70.88297
466.78        71.06394
467.22        71.08606
467.67        70.95451
468.11         71.0267
468.55        71.13864
468.99        71.31192
469.44         71.2625
469.88        70.99162
470.32        70.67497
470.77        70.41526
471.21         70.2981
471.65        70.34643
472.10        70.54566
472.54        70.78003
472.98        70.86281
473.42        70.74528
473.87        70.54393
474.31        70.28997
474.75        69.98656
475.20        69.72598
475.64        69.73174
476.08        69.97818
476.52        69.94503
476.97        69.53988
477.41        69.67836
477.85        69.79202
478.29        69.09456
478.74         69.8219
479.18        70.31753
479.62         70.3559
480.06        70.41101
480.50        70.20945
480.95        69.89398
481.39        69.57204
481.83        69.13528
482.27        69.11062
482.72        69.54617
483.16         69.5478
483.60        69.71204
484.04        69.72691
484.48         69.7593
484.93        69.69277
485.37        69.26976
485.81        69.43275
486.25        68.47092
486.69        69.19853
487.14        70.38992
487.58        69.75848
488.02        69.54073
488.46        68.65208
488.90        68.94686
489.34        70.13796
489.79        70.81047
490.23        69.73014
490.67        69.09347
491.11         68.7931
491.55        68.73124
491.99        68.84319
492.43        68.77855
492.88        68.54136
493.32        68.49538
493.76        68.65253
494.20        68.78546
494.64        68.86512
495.08        68.97069
495.52        69.06145
495.96        69.03317
496.41          68.895
496.85        68.77858
497.29        68.61378
497.73        68.60663
498.17        67.94622
498.61        67.92015
499.05        68.23212
499.49        68.45239
499.93        68.31266
500.37        68.50978
500.82        68.89208
501.26        68.91022
501.70        68.61639
502.14        68.56218
502.58        68.76697
503.02        68.85674
503.46        68.82859
503.90        68.91089
504.34        69.05598
504.78        69.06711
505.22         68.9185
505.66          68.687
506.10        68.47173
506.54        68.30486
506.98        68.19214
507.42        68.41501
507.86        68.66795
508.30        68.30331
508.74        68.50541
509.18        68.27846
509.62        68.07795
510.06        67.98911
510.50          68.049
510.94        68.20112
511.38        68.36655
511.82        68.45547
512.26        68.43988
512.70         68.3568
513.14          68.256
513.58        68.21609
514.02        68.25952
514.46         68.3537
514.90        68.47565
515.34        68.59221
515.78        68.68388
516.22        68.75788
516.66        68.79952
517.10        68.78385
517.54        68.71242
517.98        68.59739
518.42        68.46439
518.86        68.35696
519.30        68.29094
519.74        68.25704
520.18        68.25797
520.62        68.29241
521.06        68.35571
521.50        68.45246
521.93        68.55707
522.37        68.60526
522.81         68.5937
523.25        68.52971
523.69        68.46033
524.13        68.46516
524.57        68.55152
525.01        68.68382
525.45        68.80189
525.89        68.80746
526.32          68.675
526.76        68.46929
527.20        68.22442
527.64        67.99895
528.08        67.82167
528.52         67.6727
528.96        67.59267
529.40        67.64388
529.83        67.81778
530.27        68.09874
530.71        68.37432
531.15        68.46999
531.59        68.35181
532.03        68.06928
532.46        67.72829
532.90        67.54824
533.34        67.56733
533.78         67.6822
534.22        67.81218
534.66        67.91653
535.09        67.91253
535.53        67.68713
535.97        67.31712
536.41        67.09497
536.85        67.06145
537.28        67.07249
537.72        67.11429
538.16         67.2188
538.60        67.36738
539.04        67.55093
539.47        67.71602
539.91        67.82243
540.35        67.84524
540.79        67.79685
541.22        67.71293
541.66        67.67813
542.10        67.70244
542.54        67.76157
542.97        67.81257
543.41        67.81881
543.85        67.76257
544.29        67.67531
544.72        67.56448
545.16         67.4793
545.60        67.42033
546.04           67.38
546.47        67.38052
546.91        67.45317
547.35        67.59022
547.79        67.77394
548.22        67.94151
548.66        68.00037
549.10        67.99735
549.53        67.88075
549.97        67.71852
550.41        67.51871
550.84        67.38284
551.28         67.4503
551.72        67.62243
552.15        67.77153
552.59        67.93654
553.03        67.31326
553.46        67.74823
553.90        67.63296
554.34        67.48972
554.77        67.64264
555.21        67.53529
555.65        67.62092
556.08        67.69573
556.52        67.73428
556.96        67.71658
557.39        67.79976
557.83        67.94129
558.27        67.76146
558.70        67.32239
559.14        67.16116
559.57        67.25933
560.01        67.17456
560.45        66.97783
560.88        67.14495
561.32        67.58998
561.75        67.83918
562.19        67.85162
562.63         67.5869
563.06        67.21696
563.50        67.36159
563.93        67.85361
564.37        68.00484
564.80        67.80721
565.24        67.54138
565.68        67.13103
566.11        67.74627
566.55        66.98043
566.98        66.78702
567.42        66.61122
567.85        66.84563
568.29        67.41382
568.72        67.84926
569.16        68.16591
569.60        68.30839
570.03        68.28136
570.47        68.34587
570.90        68.66012
571.34        67.43845
571.77        68.17499
572.21        68.38983
572.64        68.17558
573.08        68.50433
573.51          68.076
573.95        67.93009
574.38        67.97022
574.82        68.16982
