SpectraSmart Spectrum 2.9.0.0
--------- Device Information -----------
Spectrum Name :  反射率_0
Saving Time :  2024/04/26 23:24:00
Spectro-Module Model Name : SE2030-DUVN
Spectro-Module Serial Number : OS361AC55029948
Wavelength Start : 200
Wavelength End : 1025
Wavelength Unit : Wavelength(nm)
Spectrum Unit : Reflectance(%)
-----------Spectrum Setting ------------
Integration Time : 20ms
Average : 10
Boxcar : 0
Background removal :  enabled
linearity correction :  enabled
SC :  disabled
Intensity correction :  disabled
DWT denoise :  enabled
savitzky-golay :  disabled
FFT :  disabled
Running average :  disabled
Kalman :  disabled
High pass :  disabled
---------------BEGIN--------------------
Wavelength(nm)             Reflectance(%)
200.29               0
200.75        40.06281
201.21        37.73515
201.67        36.04296
202.13        36.11345
202.58        38.00762
203.04         41.9168
203.50        47.45743
203.96        52.22696
204.42        54.12642
204.88        52.90632
205.34        49.52399
205.80         46.8208
206.26        45.81054
206.72        45.66002
207.18        45.36712
207.64         43.6588
208.10        40.12907
208.55        34.71436
209.01        27.51233
209.47          23.776
209.93        26.45092
210.39        31.97229
210.85         36.9559
211.31        40.55174
211.77        43.83943
212.23        48.76057
212.69        59.66041
213.14        80.77278
213.60        83.46501
214.06        71.35584
214.52        61.59829
214.98        55.74049
215.44        51.36461
215.90        46.98454
216.36        43.08214
216.81        40.63526
217.27        40.25335
217.73        42.23845
218.19        46.05294
218.65        47.73964
219.11        45.80746
219.57        42.63408
220.02        40.89592
220.48        42.55276
220.94        47.61407
221.40        56.69158
221.86        69.39188
222.32        77.22103
222.77        72.88776
223.23        62.39835
223.69        52.11385
224.15        45.40619
224.61        41.69344
225.06        39.48096
225.52        38.27253
225.98         37.4333
226.44        36.76849
226.90        36.42406
227.36        36.39807
227.81        36.60962
228.27        37.07389
228.73        37.60286
229.19        38.18012
229.65        38.87378
230.10        39.67288
230.56        40.56383
231.02        41.35117
231.48        41.73072
231.93        41.60485
232.39        41.28267
232.85        40.94492
233.31        40.91672
233.77        41.22224
234.22        41.78273
234.68        42.43004
235.14        43.02372
235.60         43.5366
236.05         44.1249
236.51        44.70338
236.97        45.07256
237.43        45.20492
237.88        45.12233
238.34        45.28315
238.80        46.77266
239.26        50.07367
239.71        55.70452
240.17        62.91447
240.63         69.1329
241.08        72.46174
241.54        72.10167
242.00        70.13245
242.46        71.65652
242.91        80.21259
243.37        97.50594
243.83        124.4546
244.28        148.9554
244.74        152.5359
245.20        134.8557
245.66        111.7891
246.11        98.25111
246.57        95.26371
247.03        98.18051
247.48        101.8961
247.94        98.76232
248.40        89.97132
248.85         80.4013
249.31        73.37664
249.77        69.82558
250.22        68.84201
250.68        69.45733
251.14        70.62728
251.59        69.72844
252.05        66.56139
252.51        63.61605
252.96        61.64177
253.42        61.36617
253.88        62.47282
254.33         63.6446
254.79        66.47045
255.25        72.34705
255.70        80.60451
256.16        90.49294
256.62        97.83232
257.07        96.50105
257.53        89.04055
257.99           79.96
258.44        72.56102
258.90        69.63628
259.35        69.81534
259.81        71.87498
260.27        74.30374
260.72        75.35082
261.18        75.03841
261.63        73.71737
262.09        72.35654
262.55        71.34996
263.00        70.60645
263.46        70.10256
263.91        69.27154
264.37        67.84447
264.83        65.84274
265.28        63.49043
265.74        61.43954
266.19         60.1092
266.65        59.59408
267.11        59.57227
267.56        59.66991
268.02        59.31094
268.47        58.34341
268.93        57.01252
269.38        55.46656
269.84        54.00619
270.30        52.71298
270.75        51.46198
271.21        50.35754
271.66        49.49197
272.12        48.85131
272.57        48.39244
273.03        47.87922
273.48        46.90616
273.94        45.49794
274.39        43.78442
274.85        42.15373
275.31        40.98202
275.76        40.30253
276.22        40.00718
276.67        39.85205
277.13        39.60018
277.58        39.11995
278.04        38.51843
278.49        37.81369
278.95        37.16753
279.40        36.55376
279.86        35.99126
280.31        35.37143
280.77        34.67165
281.22        33.86282
281.68        33.06665
282.13        32.33298
282.59        31.81299
283.04        31.49249
283.50        31.35169
283.95        31.32681
284.41        31.33466
284.86        31.33455
285.32        31.36117
285.77        31.40552
286.22        31.53228
286.68        31.73845
287.13         31.9432
287.59        32.11817
288.04        32.17518
288.50        32.12304
288.95        31.97007
289.41        31.75815
289.86        31.46674
290.32        31.16887
290.77        30.88506
291.22        30.71036
291.68        30.76168
292.13        31.05598
292.59        31.58445
293.04        32.31503
293.50        33.20767
293.95        34.22079
294.40        35.36268
294.86        36.58652
295.31        37.81165
295.77        39.03306
296.22        40.24582
296.68        41.52567
297.13        42.98099
297.58        44.64023
298.04         46.4688
298.49        48.38091
298.95        50.25919
299.40         52.0523
299.85        53.79657
300.31        55.53887
300.76        57.32991
301.21        59.18994
301.67        61.10329
302.12        63.01491
302.58        64.93909
303.03        66.82415
303.48        68.71656
303.94        70.62194
304.39        72.47031
304.84        74.29359
305.30        76.11507
305.75        77.96038
306.20        79.96509
306.66         82.1484
307.11        84.42149
307.57        86.66436
308.02        88.57737
308.47        90.14257
308.93        91.44933
309.38        92.66896
309.83        94.19557
310.29        96.10033
310.74        98.24882
311.19        100.3631
311.65        101.9582
312.10        102.8981
312.55        103.3397
313.00        103.5914
313.46        104.1321
313.91        105.0597
314.36        106.2611
314.82        107.5163
315.27        108.4871
315.72        109.0515
316.18        109.3477
316.63        109.5087
317.08        109.7875
317.53        110.2588
317.99        110.8349
318.44        111.4207
318.89        111.8361
319.35        112.0356
319.80        112.0922
320.25        112.1257
320.70        112.3207
321.16        112.7186
321.61        113.3011
322.06        113.9309
322.51        114.3954
322.97        114.6203
323.42        114.6636
323.87        114.6933
324.32        115.0108
324.78        115.6358
325.23         116.558
325.68        117.4392
326.13        117.7349
326.59        117.3293
327.04        116.4309
327.49        115.4669
327.94        115.1385
328.39        115.6168
328.85        116.6679
329.30        118.0253
329.75        118.9234
330.20        119.1101
330.66         118.762
331.11        118.2601
331.56        118.1366
332.01        118.5543
332.46        119.3244
332.92        120.1369
333.37        120.6547
333.82        120.7028
334.27         120.469
334.72        120.1658
335.17         120.113
335.63        120.4113
336.08        121.0117
336.53        121.8463
336.98        122.8574
337.43        123.9752
337.88        125.1784
338.34        126.3317
338.79        127.3403
339.24        128.0912
339.69         128.602
340.14        128.8566
340.59        128.8693
341.05        128.7233
341.50        128.4365
341.95        128.2099
342.40        128.3353
342.85        128.8706
343.30         129.739
343.75        130.7351
344.20        131.5014
344.66        131.9285
345.11        132.1001
345.56        132.1264
346.01        132.1989
346.46        132.3929
346.91        132.6629
347.36        132.9614
347.81        133.2319
348.26        133.4467
348.72        133.6064
349.17        133.7736
349.62        134.0814
350.07        134.5282
350.52        135.0818
350.97        135.4816
351.42        135.3199
351.87        134.5593
352.32        133.3575
352.77        132.1514
353.22        131.5746
353.67         131.744
354.13         132.465
354.58        133.3382
355.03         133.645
355.48         133.189
355.93        132.1796
356.38        131.0159
356.83        130.2977
357.28        130.1471
357.73        130.3506
358.18        130.5537
358.63        130.2048
359.08        129.1793
359.53        127.6891
359.98        126.0673
360.43        124.7793
360.88        123.9338
361.33        123.3889
361.78        122.9082
362.23        122.1289
362.68        120.9767
363.13          119.59
363.58         118.194
364.03        117.1164
364.48        116.4155
364.93        115.9601
365.38        115.5474
365.83        114.8657
366.28        113.8456
366.73        112.6153
367.18        111.3231
367.63        110.1876
368.08        109.2783
368.53        108.5227
368.98         107.883
369.43        107.3008
369.88        106.7376
370.33        106.2089
370.78        105.6706
371.23        105.0506
371.68        104.3324
372.13        103.5163
372.58        102.6563
373.03        101.8494
373.48         101.114
373.93        100.4251
374.38        99.72731
374.83        98.93242
375.28        98.03548
375.72        97.06825
376.17        96.15028
376.62        95.33681
377.07        94.65898
377.52        94.10873
377.97        93.66526
378.42        93.30978
378.87        93.01627
379.32        92.73991
379.77        92.50768
380.22        92.36013
380.67         92.2694
381.11        92.24622
381.56        92.04356
382.01        91.37424
382.46        90.25677
382.91         88.8716
383.36         87.5795
383.81         86.8622
384.26        86.77898
384.71        87.15247
385.15        87.73583
385.60        88.08463
386.05        88.04649
386.50        87.74046
386.95        87.21404
387.40        86.55818
387.85        85.85092
388.29        85.02671
388.74        84.29918
389.19        83.75134
389.64         83.3872
390.09        83.17012
390.54        83.01241
390.98        82.73966
391.43        82.35744
391.88        81.91419
392.33        81.45983
392.78        81.04108
393.23        80.67544
393.67        80.36551
394.12        80.17866
394.57        79.92403
395.02        79.65176
395.47        79.65305
395.91        79.85464
396.36        79.81464
396.81        79.51958
397.26         79.2029
397.71        78.88656
398.15        78.53334
398.60        78.26086
399.05        77.87866
399.50        77.48196
399.95        77.54486
400.39        77.93935
400.84        77.77515
401.29        77.08405
401.74        76.75349
402.18        76.75784
402.63        76.28077
403.08        75.46101
403.53        75.02499
403.97        75.01116
404.42        75.09999
404.87        75.17464
405.32        75.10572
405.76        74.83724
406.21        74.56898
406.66        74.31782
407.11         73.9086
407.55        73.52374
408.00        73.53342
408.45        73.90333
408.90        74.38551
409.34        74.68191
409.79        74.25732
410.24        73.27978
410.68        72.79598
411.13        72.87188
411.58        72.94468
412.03         72.8927
412.47        72.79575
412.92         72.6027
413.37        72.32922
413.81        72.06474
414.26        72.00766
414.71        72.15791
415.15        72.48645
415.60        72.85106
416.05         73.0842
416.49        73.12994
416.94        73.02328
417.39        72.85321
417.83        72.74337
418.28        72.73605
418.73        72.79502
419.17        72.87074
419.62        72.88808
420.07        72.81618
420.51        72.66008
420.96        72.50445
421.41        72.37782
421.85        72.26439
422.30        72.33128
422.74        72.41454
423.19        72.13789
423.64        71.57124
424.08         71.3352
424.53        71.46838
424.98        71.54712
425.42        71.56264
425.87        71.86214
426.31        72.29415
426.76        72.18604
427.21        71.62304
427.65        71.30294
428.10        71.27131
428.54         71.2458
428.99        71.28915
429.44        71.19514
429.88        71.12389
430.33        71.96342
430.77        73.22139
431.22        73.53317
431.66        72.85878
432.11         71.9691
432.56         71.2151
433.00        71.01868
433.45        71.54164
433.89        72.17465
434.34        72.17572
434.78        73.41926
435.23        72.23426
435.67        70.15202
436.12         70.7935
436.57        70.94295
437.01        71.65388
437.46        71.82951
437.90        71.45295
438.35        71.13175
438.79         70.9845
439.24        70.97894
439.68         71.1006
440.13        71.49736
440.57        72.09146
441.02        72.23052
441.46        71.98686
441.91        72.59943
442.35        73.64756
442.80        73.44479
443.24        72.25938
443.69        72.19642
444.13        73.17592
444.58        73.55363
445.02        73.27456
445.47        73.25204
445.91        73.51077
446.36        73.70313
446.80        73.80208
447.24        73.91916
447.69        73.98099
448.13         73.9948
448.58        73.95891
449.02         73.8606
449.47        73.73291
449.91        73.60036
450.36        73.50229
450.80        73.41259
451.25          73.375
451.69        73.39305
452.13        73.47805
452.58        73.61424
453.02        73.75274
453.47        73.82407
453.91        73.79219
454.36        73.67521
454.80        73.48827
455.24        73.19256
455.69        72.81115
456.13        72.53051
456.58        72.38726
457.02        71.82407
457.46        71.12474
457.91        71.41718
458.35        72.35929
458.79        72.49362
459.24        71.79178
459.68        70.93437
460.13        70.26161
460.57        69.95382
461.01        70.13855
461.46        70.33562
461.90        71.02726
462.34        71.37804
462.79        71.00555
463.23        71.13338
463.68        71.44575
464.12        71.27165
464.56        70.60413
465.01        69.73211
465.45         68.9131
465.89        68.86428
466.34        69.37033
466.78         69.5829
467.22          69.482
467.67        68.71864
468.11        68.80741
468.55        68.85558
468.99        69.15161
469.44        69.09061
469.88        68.66297
470.32        68.25443
470.77        67.95898
471.21        67.76608
471.65         67.6888
472.10        67.73061
472.54        67.84558
472.98        67.90118
473.42        67.83705
473.87        67.92172
474.31        68.02066
474.75        67.51135
475.20        66.65264
475.64        66.55253
476.08        67.15257
476.52        67.25838
476.97        66.77995
477.41        66.70277
477.85        67.17133
478.29         66.3914
478.74        66.64389
479.18        67.06342
479.62        67.15557
480.06        67.04224
480.50        66.91485
480.95        66.74761
481.39        66.78373
481.83        66.21107
482.27        65.97644
482.72        66.81838
483.16        66.30206
483.60        66.42939
484.04        66.58244
484.48        66.69627
484.93        66.59206
485.37        66.69118
485.81        66.48997
486.25        65.92046
486.69         67.6407
487.14        68.93785
487.58        67.27032
488.02        66.68694
488.46         65.7359
488.90        65.70916
489.34        66.55357
489.79        67.44444
490.23          66.963
490.67        66.34412
491.11        65.51469
491.55        65.21203
491.99        65.42185
492.43         65.3283
492.88        64.95646
493.32        64.96082
493.76        65.30913
494.20        65.55843
494.64        65.65092
495.08        65.71603
495.52        65.75635
495.96        65.73818
496.41        65.66643
496.85        65.64473
497.29        65.55951
497.73        65.45188
498.17        64.60919
498.61        64.58592
499.05         65.0601
499.49        65.28696
499.93        64.98614
500.37        64.94613
500.82         65.0958
501.26        65.06177
501.70        64.87956
502.14        64.86472
502.58        65.01088
503.02        65.08273
503.46        65.06928
503.90        65.10522
504.34        65.15813
504.78        65.10849
505.22        64.94104
505.66        64.72233
506.10         64.5443
506.54        64.42638
506.98        64.36482
507.42        64.76813
507.86         64.8846
508.30        64.86298
508.74        64.91058
509.18         64.7271
509.62        64.50536
510.06        64.34611
510.50        64.29124
510.94        64.29591
511.38        64.32582
511.82        64.33706
512.26        64.31467
512.70        64.28302
513.14        64.25446
513.58        64.24385
514.02        64.25652
514.46        64.27844
514.90        64.31405
515.34        64.37528
515.78        64.45613
516.22        64.54818
516.66        64.62008
517.10        64.62283
517.54        64.54794
517.98        64.41205
518.42        64.25035
518.86        64.11987
519.30        64.04016
519.74        64.00117
520.18        63.98753
520.62        63.96963
521.06        63.94299
521.50         63.9245
521.93        63.92906
522.37        63.95935
522.81        64.02117
523.25        64.09402
523.69        64.17583
524.13        64.27036
524.57        64.36586
525.01         64.4525
525.45         64.4912
525.89        64.42047
526.32         64.2321
526.76        63.97607
527.20         63.7024
527.64        63.49606
528.08        63.38442
528.52         63.3377
528.96        63.35517
529.40        63.44284
529.83        63.57629
530.27        63.73462
530.71        63.86234
531.15          63.902
531.59        63.84081
532.03        63.68021
532.46        63.48119
532.90        63.39642
533.34        63.44355
533.78        63.54558
534.22        63.63707
534.66        63.69415
535.09        63.64946
535.53        63.39267
535.97        63.01085
536.41        62.80411
536.85        62.81227
537.28        62.88962
537.72        63.00202
538.16        63.14606
538.60        63.29216
539.04        63.43541
539.47        63.53581
539.91        63.58023
540.35        63.55313
540.79        63.45582
541.22        63.33572
541.66        63.29189
542.10        63.33452
542.54        63.45082
542.97        63.57093
543.41        63.57895
543.85        63.46526
544.29        63.34624
544.72        63.24249
545.16        63.15691
545.60        63.09638
546.04        63.09141
546.47        63.14029
546.91        63.22081
547.35        63.31936
547.79        63.41893
548.22        63.50241
548.66        63.57841
549.10        63.68264
549.53        63.67331
549.97         63.5718
550.41        63.38453
550.84         63.1985
551.28        63.11806
551.72        63.10142
552.15        63.16363
552.59        63.37745
553.03        62.81866
553.46        63.36609
553.90        63.33871
554.34        63.27876
554.77        63.20138
555.21        63.18328
555.65        63.14808
556.08        63.41231
556.52        63.43015
556.96        63.29963
557.39        63.32391
557.83        63.45856
558.27        63.24474
558.70        62.76567
559.14        62.59171
559.57        62.70644
560.01        62.76039
560.45        62.74615
560.88        62.81723
561.32        62.98403
561.75        63.22021
562.19        63.45704
562.63        63.37291
563.06         63.0423
563.50        62.96118
563.93        63.07825
564.37        63.09683
564.80        63.04016
565.24        62.96015
565.68        62.71994
566.11         63.4059
566.55        62.74321
566.98        62.55856
567.42        62.34951
567.85         62.5467
568.29         63.0975
568.72        63.48406
569.16        63.70953
569.60        64.02716
570.03        64.12533
570.47        64.29927
570.90        64.54546
571.34        63.97463
571.77        64.24478
572.21        64.93069
572.64        64.62449
573.08        64.89299
573.51        63.95901
573.95         63.8409
574.38        64.24694
574.82        64.73399
