SpectraSmart Spectrum 2.9.0.0
--------- Device Information -----------
Spectrum Name :  反射率_0
Saving Time :  2024/04/26 23:21:57
Spectro-Module Model Name : SE2030-DUVN
Spectro-Module Serial Number : OS361AC55029948
Wavelength Start : 200
Wavelength End : 1025
Wavelength Unit : Wavelength(nm)
Spectrum Unit : Reflectance(%)
-----------Spectrum Setting ------------
Integration Time : 20ms
Average : 10
Boxcar : 0
Background removal :  enabled
linearity correction :  enabled
SC :  disabled
Intensity correction :  disabled
DWT denoise :  enabled
savitzky-golay :  disabled
FFT :  disabled
Running average :  disabled
Kalman :  disabled
High pass :  disabled
---------------BEGIN--------------------
Wavelength(nm)             Reflectance(%)
200.29               0
200.75        26.71059
201.21        31.30694
201.67        36.34985
202.13        39.28059
202.58        39.91573
203.04        39.58927
203.50        38.75531
203.96        38.46212
204.42        39.41611
204.88        40.53493
205.34        42.20863
205.80        45.41169
206.26         49.3797
206.72        53.26244
207.18        55.11037
207.64         52.8435
208.10        46.15685
208.55        34.47699
209.01        18.07773
209.47        8.508712
209.93        12.79497
210.39        23.44012
210.85        33.28094
211.31        39.98523
211.77        45.32819
212.23        52.89954
212.69        67.37124
213.14        85.86829
213.60        73.99379
214.06        51.75721
214.52        40.00951
214.98        36.77327
215.44        37.57634
215.90        40.53396
216.36        44.36325
216.81         46.9051
217.27        47.81467
217.73        48.25245
218.19        47.67039
218.65        45.01054
219.11        41.88418
219.57        39.19208
220.02        38.73873
220.48        42.35739
220.94        50.26097
221.40         63.8278
221.86        82.45285
222.32        93.19198
222.77        85.78146
223.23        69.69119
223.69        54.09321
224.15        43.73344
224.61        37.78886
225.06        33.98602
225.52        32.24844
225.98        32.56105
226.44        34.43754
226.90        37.75305
227.36        41.05253
227.81        41.74306
228.27        39.66904
228.73        35.88366
229.19        32.35699
229.65        31.36265
230.10        33.00829
230.56        36.43867
231.02        40.26889
231.48        42.26006
231.93        41.87993
232.39        40.22958
232.85        38.37066
233.31        37.67701
233.77        38.35988
234.22        39.96183
234.68        41.84812
235.14        43.20935
235.60        43.76922
236.05        43.75928
236.51        43.53653
236.97        43.76659
237.43        44.70851
237.88        46.27168
238.34        47.89241
238.80         48.8896
239.26        49.18076
239.71        49.19696
240.17        49.60638
240.63        52.65466
241.08        59.63742
241.54        69.74813
242.00        82.17173
242.46        96.13746
242.91        112.9082
243.37        134.3242
243.83        159.7031
244.28        176.1818
244.74        166.7457
245.20        133.7755
245.66        98.94746
246.11        78.87647
246.57        73.00461
247.03        76.55022
247.48         83.8246
247.94        84.84837
248.40        79.27503
248.85        72.11843
249.31        66.64239
249.77        64.18909
250.22        64.23125
250.68        65.69932
251.14        68.33798
251.59        70.95232
252.05        72.74141
252.51        74.73135
252.96        75.60077
253.42        74.68552
253.88        72.49824
254.33         69.0636
254.79        67.65756
255.25        70.99572
255.70        78.35117
256.16        88.40412
256.62        96.38989
257.07        95.37347
257.53         87.7446
257.99        78.28815
258.44        70.60987
258.90        67.70016
259.35        68.08626
259.81        70.37158
260.27        72.76813
260.72        73.20214
261.18        71.82355
261.63        69.30528
262.09        66.88998
262.55        65.25236
263.00        64.29536
263.46        63.82287
263.91        63.19387
264.37        62.00861
264.83        60.24323
265.28        58.15144
265.74        56.32816
266.19        55.14555
266.65         54.6988
267.11        54.68626
267.56        54.79688
268.02        54.56034
268.47        53.84055
268.93        52.83128
269.38        51.62797
269.84        50.44655
270.30        49.34196
270.75        48.21721
271.21        47.17222
271.66        46.29755
272.12        45.59457
272.57        45.03077
273.03        44.42363
273.48        43.45525
273.94        42.16235
274.39        40.64917
274.85        39.24385
275.31        38.24659
275.76        37.67233
276.22        37.42779
276.67        37.30013
277.13        37.08879
277.58         36.6765
278.04        36.16187
278.49        35.54095
278.95        34.93609
279.40        34.32783
279.86        33.75348
280.31        33.15311
280.77        32.56576
281.22        31.95812
281.68        31.39939
282.13        30.89253
282.59        30.52494
283.04         30.2661
283.50        30.11758
283.95        30.01045
284.41        29.85221
284.86        29.63025
285.32        29.41033
285.77        29.24083
286.22        29.25864
286.68         29.4718
287.13        29.77164
287.59        30.11234
288.04        30.37683
288.50        30.54261
288.95        30.61339
289.41        30.57365
289.86        30.32678
290.32        29.94044
290.77        29.46219
291.22        29.06283
291.68        28.97585
292.13        29.24673
292.59        29.83883
293.04        30.66372
293.50         31.5859
293.95         32.5432
294.40        33.57684
294.86        34.69351
295.31        35.89506
295.77        37.19036
296.22        38.53917
296.68        39.96437
297.13        41.49749
297.58        43.14864
298.04         44.9131
298.49        46.73938
298.95        48.56201
299.40        50.34888
299.85        52.12066
300.31         53.9201
300.76        55.79142
301.21        57.75019
301.67        59.78668
302.12        61.82866
302.58        63.86283
303.03        65.82664
303.48        67.75546
303.94        69.68243
304.39        71.58367
304.84        73.49306
305.30        75.42487
305.75        77.33507
306.20        79.25321
306.66        81.19283
307.11        83.10654
307.57        84.99311
308.02        86.73336
308.47        88.33627
308.93        89.82927
309.38         91.2534
309.83        92.80065
310.29        94.49942
310.74        96.28082
311.19        97.97723
311.65        99.28628
312.10        100.1221
312.55          100.58
313.00        100.8901
313.46        101.4116
313.91        102.2147
314.36        103.2389
314.82        104.3056
315.27        105.1383
315.72        105.6425
316.18         105.931
316.63        106.1403
317.08        106.5337
317.53        107.1714
317.99        107.9508
318.44         108.733
318.89        109.2671
319.35        109.4844
319.80        109.4726
320.25        109.3678
320.70         109.388
321.16        109.5945
321.61        109.9668
322.06        110.3953
322.51        110.7084
322.97        110.8473
323.42        110.8751
323.87        110.9296
324.32        111.2534
324.78        111.8518
325.23        112.7188
325.68        113.5631
326.13        113.9219
326.59        113.6885
327.04         113.035
327.49        112.3047
327.94        112.0732
328.39        112.4858
328.85        113.3459
329.30        114.4648
329.75         115.229
330.20        115.4381
330.66        115.2288
331.11        114.9131
331.56        114.9137
332.01        115.3548
332.46        116.0746
332.92        116.8003
333.37        117.2521
333.82        117.2773
334.27        117.0474
334.72        116.7348
335.17        116.5984
335.63        116.7316
336.08        117.1088
336.53        117.7359
336.98        118.6691
337.43        119.8644
337.88         121.269
338.34        122.6569
338.79        123.7751
339.24        124.4647
339.69        124.7803
340.14        124.7956
340.59        124.6748
341.05        124.5416
341.50        124.3758
341.95         124.294
342.40        124.4573
342.85        124.9018
343.30        125.6015
343.75        126.4475
344.20        127.2355
344.66        127.8843
345.11        128.4093
345.56        128.8197
346.01        129.1548
346.46        129.4419
346.91        129.6796
347.36        129.8608
347.81        129.9932
348.26          130.08
348.72        130.1082
349.17        130.1549
349.62        130.3756
350.07        130.7769
350.52        131.3348
350.97        131.7774
351.42        131.6694
351.87        130.9609
352.32        129.8042
352.77        128.6448
353.22        128.1342
353.67        128.3895
354.13        129.2125
354.58        130.1695
355.03        130.4866
355.48        129.9662
355.93        128.8451
356.38        127.5852
356.83        126.8816
357.28        126.8692
357.73        127.2905
358.18        127.7383
358.63        127.5727
359.08        126.6324
359.53        125.1559
359.98        123.4685
360.43        122.0256
360.88        120.9539
361.33        120.1244
361.78        119.3739
362.23        118.4558
362.68        117.3278
363.13        116.1091
363.58        114.9528
364.03        114.0681
364.48        113.4775
364.93        113.0648
365.38        112.6899
365.83        112.1477
366.28         111.378
366.73        110.4603
367.18        109.4306
367.63        108.3401
368.08        107.2355
368.53         106.114
368.98         105.073
369.43        104.2636
369.88        103.7097
370.33        103.3776
370.78        103.1363
371.23        102.7614
371.68        102.1832
372.13        101.4397
372.58        100.6386
373.03        99.96305
373.48        99.44644
373.93        99.01835
374.38         98.5517
374.83        97.85808
375.28        96.90845
375.72        95.76807
376.17        94.63348
376.62        93.67134
377.07        92.94334
377.52        92.42357
377.97        92.02063
378.42        91.60021
378.87        91.12092
379.32        90.58127
379.77        90.11643
380.22        89.92264
380.67        89.99386
381.11        90.28715
381.56        90.42657
382.01        89.89838
382.46        88.66269
382.91        86.97808
383.36        85.33871
383.81         84.4127
384.26        84.30106
384.71         84.7704
385.15        85.49751
385.60        85.91301
386.05        85.82859
386.50        85.40886
386.95        84.76144
387.40        84.06407
387.85        83.40943
388.29        82.69318
388.74        82.07526
389.19         81.5743
389.64        81.18611
390.09        80.90639
390.54        80.67938
390.98        80.38112
391.43        80.02856
391.88        79.64384
392.33        79.27313
392.78        78.95406
393.23        78.69114
393.67        78.50739
394.12        78.42817
394.57        78.15822
395.02        77.76563
395.47        77.66206
395.91        77.80487
396.36        77.71882
396.81        77.40092
397.26        77.11718
397.71        76.87061
398.15        76.56998
398.60        76.33094
399.05        75.98979
399.50        75.62171
399.95        75.72263
400.39        76.17107
400.84        75.91813
401.29        75.08982
401.74        75.05489
402.18        75.67132
402.63        75.37743
403.08        74.31179
403.53        73.82181
403.97        73.96548
404.42        74.06037
404.87        74.00361
405.32        73.86852
405.76        73.60616
406.21        73.35845
406.66        73.15521
407.11        72.77356
407.55        72.38391
408.00        72.56852
408.45        73.21035
408.90        73.46616
409.34        73.22196
409.79        72.89644
410.24        72.61626
410.68        72.39659
411.13        72.28741
411.58        72.26777
412.03        72.23895
412.47        72.05724
412.92         71.6871
413.37        71.22247
413.81         70.7991
414.26        70.67667
414.71        70.86507
415.15        71.30605
415.60         71.8308
416.05        72.22063
416.49        72.39219
416.94        72.39297
417.39        72.29338
417.83        72.19513
418.28        72.14717
418.73        72.11594
419.17        72.11526
419.62          72.177
420.07        72.28464
420.51        72.40323
420.96         72.5321
421.41        72.57151
421.85        72.47786
422.30        72.44972
422.74         72.3885
423.19        72.04816
423.64        71.51609
424.08        71.31154
424.53        71.47245
424.98        71.67512
425.42        71.91621
425.87        72.39845
426.31        72.96071
426.76        73.17472
427.21        73.00098
427.65        72.57575
428.10        72.07549
428.54        71.86504
428.99        72.04632
429.44        72.19971
429.88        72.35635
430.33        73.06503
430.77        73.94822
431.22        74.27083
431.66        73.98535
432.11         73.2921
432.56        72.53506
433.00        72.63223
433.45        73.70502
433.89        74.54651
434.34        74.38557
434.78        75.72224
435.23        74.70424
435.67        72.42094
436.12          73.085
436.57        73.19771
437.01        73.99361
437.46        74.27342
437.90        74.02605
438.35        73.70801
438.79        73.75773
439.24         73.7803
439.68        73.85244
440.13        74.15372
440.57         74.6476
441.02        74.67088
441.46        74.34076
441.91        75.07001
442.35        76.34306
442.80        76.15361
443.24        74.81783
443.69        74.76773
444.13        75.90579
444.58        76.52589
445.02        76.17281
445.47        76.25557
445.91        76.65643
446.36        76.92404
446.80        77.02664
447.24        77.08585
447.69        77.13782
448.13        77.20915
448.58        77.32623
449.02        77.44122
449.47        77.53072
449.91        77.53006
450.36        77.45606
450.80        77.31149
451.25        77.17649
451.69        77.10782
452.13        77.14071
452.58        77.24969
453.02        77.38757
453.47        77.48459
453.91        77.50045
454.36        77.46957
454.80        77.40556
455.24        77.22691
455.69        76.93745
456.13        76.86317
456.58        76.72378
457.02        76.25999
457.46        75.63618
457.91         75.8659
458.35        76.62699
458.79        76.64133
459.24        75.92021
459.68        75.00712
460.13        74.22062
460.57        74.08945
461.01        74.40157
461.46        74.64244
461.90        75.18703
462.34        76.28699
462.79        75.75094
463.23        75.89729
463.68        75.94316
464.12         75.6259
464.56        74.95534
465.01        74.08708
465.45        73.28335
465.89        73.18639
466.34        73.62234
466.78        74.02821
467.22        74.31404
467.67        73.53607
468.11        73.47243
468.55        73.43313
468.99        73.83205
469.44        73.85899
469.88        73.51231
470.32        73.29329
470.77        73.23373
471.21        73.16389
471.65        73.07336
472.10        73.02011
472.54        73.00153
472.98        72.96499
473.42        72.88738
473.87        72.95667
474.31        73.04622
474.75        72.64784
475.20        71.96835
475.64        71.89478
476.08        72.38172
476.52        72.47071
476.97        72.09103
477.41        72.00832
477.85        72.37712
478.29        71.79467
478.74        72.29453
479.18        72.68889
479.62        72.64557
480.06        72.64719
480.50         72.3783
480.95          72.297
481.39        72.49986
481.83        71.38254
482.27        71.78998
482.72        71.98262
483.16        71.75769
483.60        71.87885
484.04        72.03792
484.48         72.3619
484.93        72.56913
485.37        72.31157
485.81        71.82755
486.25        71.08993
486.69        72.27236
487.14        73.29829
487.58        71.76122
488.02        71.98886
488.46        70.97427
488.90        71.32906
489.34        72.37007
489.79        73.77815
490.23        72.51875
490.67        71.73928
491.11        70.97481
491.55         70.8944
491.99        71.37398
492.43        71.38017
492.88        70.90756
493.32        70.73226
493.76        70.90708
494.20        71.05447
494.64        71.14968
495.08        71.32384
495.52        71.51009
495.96        71.54967
496.41        71.45031
496.85        71.35281
497.29        71.19633
497.73         71.2554
498.17        70.67601
498.61        70.61629
499.05        70.81026
499.49        70.94903
499.93        70.71746
500.37        70.82883
500.82        71.29442
501.26        70.59891
501.70        71.26293
502.14         71.2028
502.58        71.19824
503.02        71.26073
503.46        71.40665
503.90        71.57545
504.34         71.6814
504.78        71.64928
505.22        71.43562
505.66        71.16904
506.10        70.98577
506.54        70.72741
506.98        70.35444
507.42        71.09903
507.86        71.07436
508.30        70.76638
508.74         71.0988
509.18        70.94109
509.62        70.78722
510.06        70.70712
510.50        70.75118
510.94         70.8479
511.38        70.93993
511.82        70.98001
512.26        70.94971
512.70        70.86842
513.14        70.75555
513.58        70.70724
514.02        70.75407
514.46        70.74731
514.90        70.63663
515.34        71.02369
515.78        70.81564
516.22        70.88002
516.66        70.90544
517.10        70.93304
517.54        70.95752
517.98        70.98814
518.42        71.00564
518.86        70.95151
519.30        70.82816
519.74        70.65827
520.18         70.5067
520.62        70.47183
521.06        70.57331
521.50        70.78321
521.93        71.03727
522.37        71.19463
522.81        71.22207
523.25        71.16728
523.69        71.09314
524.13        70.98618
524.57        71.05018
525.01        71.10487
525.45        71.14465
525.89        71.07035
526.32         70.8636
526.76        70.58696
527.20        70.30737
527.64        70.13448
528.08        70.09575
528.52        70.15339
528.96        70.26989
529.40        70.38698
529.83        70.47567
530.27        70.55561
530.71        70.60917
531.15        70.61829
531.59        70.58318
532.03        70.50139
532.46        70.38724
532.90         70.3167
533.34        70.29385
533.78        70.26752
534.22        70.22124
534.66        70.21204
535.09         70.1829
535.53        69.98518
535.97        69.67464
536.41         69.5101
536.85        69.51618
537.28        69.59827
537.72        69.66492
538.16        69.79678
538.60         69.9517
539.04        70.12111
539.47        70.25652
539.91        70.33294
540.35        70.32973
540.79        70.25529
541.22        70.14803
541.66        70.09549
542.10         70.1086
542.54        70.16694
542.97        70.21774
543.41        70.20975
543.85        70.12331
544.29        69.99194
544.72        69.84612
545.16        69.77285
545.60        69.77984
546.04        69.84846
546.47         69.9585
546.91        70.09991
547.35        70.25537
547.79        70.35164
548.22        70.37557
548.66        70.53057
549.10        70.64806
549.53        70.55666
549.97        70.27327
550.41         70.0129
550.84        69.86598
551.28        69.90454
551.72        70.06495
552.15         70.1527
552.59        70.18912
553.03        70.03369
553.46        70.28061
553.90        70.28934
554.34        70.23292
554.77          70.146
555.21        70.01949
555.65        70.15099
556.08        70.44695
556.52        70.55251
556.96         70.4408
557.39        70.47392
557.83        70.60951
558.27        70.36121
558.70        69.81519
559.14        69.59261
559.57        69.69022
560.01        69.65986
560.45        69.53929
560.88        69.76517
561.32        70.26404
561.75        70.50536
562.19        70.47697
562.63        70.42081
563.06        70.39366
563.50         70.3412
563.93        70.35871
564.37        70.35673
564.80        70.37675
565.24          70.169
565.68        69.64213
566.11        70.28565
566.55        69.59213
566.98        69.46217
567.42        69.30627
567.85        69.54935
568.29        70.10583
568.72        70.49747
569.16        70.76523
569.60        70.81522
570.03        70.85834
570.47        70.93654
570.90        71.25787
571.34        70.16389
571.77        70.85934
572.21        71.20452
572.64        71.09376
573.08        71.33955
573.51        70.64112
573.95        70.57246
574.38        71.01756
574.82        71.08262
