SpectraSmart Spectrum 2.9.0.0
--------- Device Information -----------
Spectrum Name :  反射率_0
Saving Time :  2024/04/26 23:20:04
Spectro-Module Model Name : SE2030-DUVN
Spectro-Module Serial Number : OS361AC55029948
Wavelength Start : 200
Wavelength End : 1025
Wavelength Unit : Wavelength(nm)
Spectrum Unit : Reflectance(%)
-----------Spectrum Setting ------------
Integration Time : 20ms
Average : 10
Boxcar : 0
Background removal :  enabled
linearity correction :  enabled
SC :  disabled
Intensity correction :  disabled
DWT denoise :  enabled
savitzky-golay :  disabled
FFT :  disabled
Running average :  disabled
Kalman :  disabled
High pass :  disabled
---------------BEGIN--------------------
Wavelength(nm)             Reflectance(%)
200.29               0
200.75        47.42612
201.21        39.98621
201.67         34.1009
202.13        31.18353
202.58        30.95605
203.04        33.53837
203.50        38.59414
203.96        43.79161
204.42        47.20765
204.88        48.60044
205.34        48.78836
205.80        50.20522
206.26        53.01699
206.72        55.51144
207.18        56.68303
207.64        55.76303
208.10        52.65632
208.55          47.686
209.01        40.19319
209.47        33.90335
209.93        32.77047
210.39        34.99905
210.85         38.3513
211.31        42.27677
211.77        48.08864
212.23        60.00713
212.69        88.68562
213.14        136.6138
213.60        133.5252
214.06        98.21957
214.52        74.72163
214.98          64.797
215.44        61.16056
215.90        59.56394
216.36        58.85202
216.81        57.55798
217.27        55.46888
217.73        53.89081
218.19        52.12405
218.65        48.84509
219.11        45.79062
219.57        43.56703
220.02        44.38309
220.48         50.9992
220.94        64.15745
221.40        86.27922
221.86        116.0067
222.32        131.8537
222.77        117.8072
223.23         89.6852
223.69        63.76115
224.15        48.44009
224.61         41.5895
225.06        38.85672
225.52        38.63346
225.98        39.41389
226.44        40.58608
226.90        42.57034
227.36        44.42321
227.81        44.41631
228.27        42.49432
228.73        39.14028
229.19        35.88448
229.65        34.52831
230.10        35.11245
230.56         37.0824
231.02        39.12103
231.48        39.13809
231.93        36.92494
232.39        33.68538
232.85        30.81007
233.31        30.09091
233.77        31.64763
234.22        34.74406
234.68        38.40462
235.14        41.24256
235.60        42.79123
236.05        43.52821
236.51        43.60387
236.97        43.32458
237.43        42.98005
237.88         42.4808
238.34        42.30694
238.80        43.60113
239.26        46.88876
239.71        52.77875
240.17         60.9922
240.63        69.68629
241.08        77.24641
241.54        82.77966
242.00        87.02741
242.46        93.07327
242.91         103.681
243.37        119.2267
243.83        140.4189
244.28        159.3739
244.74        161.9595
245.20        147.7937
245.66          127.32
246.11        109.1798
246.57        94.53693
247.03        81.12681
247.48        69.22751
247.94        61.52244
248.40        58.92452
248.85        59.50758
249.31        61.21614
249.77        62.04269
250.22        61.66803
250.68         60.2945
251.14        58.56491
251.59        58.62071
252.05        61.55157
252.51        66.30861
252.96        70.09765
253.42        71.04667
253.88        69.63928
254.33        66.70836
254.79        65.23664
255.25        67.51192
255.70        73.08678
256.16        80.86813
256.62        87.41154
257.07        87.58857
257.53        82.94391
257.99        76.76843
258.44        71.55654
258.90        69.65031
259.35        69.92914
259.81        71.56924
260.27         73.2049
260.72        73.28898
261.18        72.03066
261.63        69.81998
262.09        67.80801
262.55        66.60087
263.00        66.04309
263.46        65.96527
263.91        65.58649
264.37        64.32288
264.83        62.17207
265.28        59.48375
265.74        57.04219
266.19        55.45269
266.65        54.83423
267.11        54.80781
267.56         54.9319
268.02        54.52847
268.47        53.42748
268.93        51.91499
269.38        50.21758
269.84        48.73618
270.30        47.57324
270.75        46.57353
271.21        45.74903
271.66        45.06237
272.12         44.4758
272.57        43.98774
273.03        43.46463
273.48        42.66496
273.94        41.62292
274.39        40.38897
274.85        39.21812
275.31        38.32243
275.76        37.71027
276.22        37.33174
276.67        37.03041
277.13        36.68565
277.58        36.19805
278.04        35.63626
278.49         34.9848
278.95        34.34271
279.40        33.69072
279.86        33.09703
280.31         32.4789
280.77        31.83619
281.22        31.14355
281.68        30.47383
282.13         29.9114
282.59        29.66036
283.04          29.688
283.50        29.94258
283.95        30.22075
284.41        30.21124
284.86        29.86056
285.32        29.32193
285.77        28.77909
286.22        28.55729
286.68        28.71363
287.13        29.08895
287.59        29.58016
288.04        29.98283
288.50        30.24237
288.95        30.38286
289.41        30.41736
289.86        30.28874
290.32        30.06292
290.77        29.76394
291.22        29.50773
291.68        29.45067
292.13        29.63872
292.59        30.07953
293.04         30.7616
293.50        31.66852
293.95        32.76577
294.40        34.04811
294.86         35.4785
295.31        36.98889
295.77        38.55169
296.22        40.13751
296.68        41.73914
297.13        43.34328
297.58        44.96264
298.04        46.60808
298.49        48.28502
298.95        50.02494
299.40        51.82012
299.85        53.66566
300.31        55.57233
300.76        57.52673
301.21        59.52729
301.67        61.58762
302.12         63.6315
302.58         65.6416
303.03        67.55951
303.48        69.41769
303.94        71.28455
304.39          73.189
304.84        75.17214
305.30        77.23688
305.75        79.28504
306.20        81.26279
306.66        83.17286
307.11        84.99473
307.57        86.79444
308.02        88.55389
308.47        90.29612
308.93        92.00618
309.38        93.65919
309.83        95.34965
310.29        97.08719
310.74        98.84628
311.19        100.4935
311.65        101.7803
312.10        102.6428
312.55        103.1518
313.00        103.5568
313.46        104.2528
313.91        105.2989
314.36        106.6172
314.82        107.9545
315.27        108.9085
315.72        109.3598
316.18        109.4684
316.63         109.442
317.08        109.6596
317.53        110.2195
317.99        110.9873
318.44        111.8192
318.89        112.4502
319.35        112.7944
319.80        112.9456
320.25        112.9952
320.70        113.0859
321.16        113.2651
321.61        113.5282
322.06        113.8183
322.51        114.0604
322.97        114.2195
323.42        114.3273
323.87        114.4802
324.32        114.8529
324.78        115.4267
325.23        116.2225
325.68        116.9584
326.13        117.1873
326.59        116.8245
327.04        116.0507
327.49        115.2291
327.94        114.9683
328.39        115.4158
328.85        116.3529
329.30        117.5984
329.75        118.5351
330.20        118.9455
330.66        118.9699
331.11        118.8341
331.56        118.8255
332.01        119.0539
332.46        119.3857
332.92        119.7183
333.37        120.0793
333.82        120.3817
334.27        120.7032
334.72        120.9979
335.17        121.1522
335.63        121.1637
336.08        121.1371
336.53        121.2359
336.98        121.7837
337.43        122.8343
337.88        124.2428
338.34        125.7754
338.79        127.1696
339.24        128.2168
339.69        128.9717
340.14        129.3638
340.59        129.3127
341.05        128.9105
341.50        128.2231
341.95        127.5391
342.40        127.2968
342.85         127.607
343.30        128.3563
343.75        129.3875
344.20        130.4041
344.66        131.2714
345.11        132.0423
345.56        132.6341
346.01        132.9391
346.46        132.9731
346.91        132.7629
347.36        132.4797
347.81        132.4213
348.26        132.6446
348.72        133.0566
349.17        133.5294
349.62        133.8861
350.07         134.061
350.52        134.1392
350.97         134.052
351.42        133.6914
351.87        133.0897
352.32        132.2887
352.77        131.5596
353.22        131.3016
353.67        131.5656
354.13        132.2238
354.58        132.9597
355.03        133.1908
355.48        132.7624
355.93        131.8362
356.38        130.7493
356.83        130.0164
357.28        129.7433
357.73        129.7515
358.18        129.7562
358.63        129.3109
359.08        128.3161
359.53        126.9504
359.98        125.4641
360.43        124.2011
360.88        123.2436
361.33        122.4832
361.78        121.7726
362.23        120.8893
362.68        119.7953
363.13        118.5986
363.58          117.42
364.03        116.4239
364.48        115.6399
364.93        114.9831
365.38         114.392
365.83        113.7857
366.28        113.1247
366.73        112.4364
367.18        111.6793
367.63        110.7831
368.08        109.7512
368.53        108.6123
368.98        107.4681
369.43        106.4796
369.88        105.6906
370.33        105.0676
370.78        104.5343
371.23         103.961
371.68        103.3042
372.13        102.5854
372.58        101.8624
373.03        101.2269
373.48        100.6834
373.93        100.1844
374.38        99.62507
374.83        98.85575
375.28        97.86145
375.72        96.69276
376.17        95.53982
376.62        94.56223
377.07        93.81941
377.52        93.29042
377.97        92.89207
378.42        92.49902
378.87        92.06992
379.32        91.59883
379.77         91.2037
380.22        91.05788
380.67        91.15113
381.11        91.44338
381.56        91.57748
382.01        91.07492
382.46        89.89791
382.91        88.28774
383.36        86.70814
383.81        85.78379
384.26        85.61221
384.71        85.98279
385.15        86.59466
385.60        86.91697
386.05        86.77679
386.50        86.32185
386.95        85.67259
387.40        85.02428
387.85        84.45998
388.29        83.86769
388.74        83.35288
389.19        82.85297
389.64        82.36027
390.09        81.90034
390.54        81.49116
390.98        81.13113
391.43         80.8603
391.88        80.65308
392.33        80.48814
392.78        80.29086
393.23         80.0383
393.67        79.83537
394.12         79.7298
394.57        79.33963
395.02        78.80119
395.47         78.7794
395.91        79.16018
396.36          79.107
396.81        78.59304
397.26         78.0889
397.71        77.67065
398.15        77.27503
398.60        77.01662
399.05        76.71113
399.50        76.40202
399.95        76.43817
400.39        76.68706
400.84         76.4264
401.29        75.69618
401.74        75.17226
402.18        74.91599
402.63        74.51208
403.08         74.0649
403.53        73.88949
403.97        73.99287
404.42        74.28098
404.87        74.57565
405.32        74.58793
405.76        74.25843
406.21        73.71969
406.66        73.11718
407.11        72.74946
407.55        72.71772
408.00         72.7148
408.45        72.71072
408.90        73.08804
409.34        73.56326
409.79        73.13731
410.24        72.05805
410.68        71.52884
411.13        71.63944
411.58        71.74901
412.03        71.71243
412.47        71.58724
412.92        71.31714
413.37        70.93538
413.81        70.57003
414.26        70.46677
414.71        70.63434
415.15        71.03169
415.60        71.48256
416.05        71.75363
416.49        71.77116
416.94        71.59241
417.39        71.34165
417.83        71.19681
418.28        71.21466
418.73        71.34038
419.17        71.50076
419.62        71.58401
420.07        71.54266
420.51        71.38922
420.96        71.21994
421.41        71.07091
421.85        70.93326
422.30        71.00344
422.74        71.09781
423.19        70.75033
423.64        70.05629
424.08        69.77733
424.53        69.97767
424.98        70.12743
425.42        70.20942
425.87        70.70301
426.31        71.39344
426.76        71.31113
427.21        70.58993
427.65        70.33005
428.10        70.53991
428.54        70.53767
428.99        70.36825
429.44        70.11083
429.88        69.97111
430.33        70.60152
430.77        71.60863
431.22        72.13947
431.66        71.99424
432.11        71.06191
432.56        69.77618
433.00        69.51202
433.45        70.48766
433.89        71.39186
434.34        71.42973
434.78         72.6663
435.23        71.93367
435.67        69.56439
436.12        70.06671
436.57        69.96822
437.01        70.45074
437.46        70.94412
437.90        70.78609
438.35        69.41201
438.79        70.09072
439.24        69.95234
439.68        69.97375
440.13        70.22008
440.57        70.67137
441.02        70.81721
441.46         70.6564
441.91        71.13722
442.35        71.90539
442.80        71.66948
443.24        70.65244
443.69        70.57498
444.13        71.36054
444.58        71.63947
445.02        71.36905
445.47        71.32177
445.91        71.54761
446.36        71.79549
446.80        72.03903
447.24        72.33263
447.69         72.5873
448.13        72.64376
448.58        72.49799
449.02        72.17818
449.47        71.79811
449.91        71.52625
450.36         71.4373
450.80        71.43684
451.25        71.49526
451.69        71.67505
452.13        71.65163
452.58        71.76161
453.02        71.88116
453.47         71.9146
453.91        71.84266
454.36        71.73541
454.80        71.61634
455.24        71.35409
455.69        70.95518
456.13         70.6855
456.58        70.72887
457.02        69.83192
457.46        70.30456
457.91        70.32105
458.35        70.36615
458.79        70.18671
459.24        69.83102
459.68        69.26437
460.13        68.68219
460.57        68.46658
461.01        68.72984
461.46        68.59616
461.90        69.20309
462.34        69.52534
462.79         69.5732
463.23        69.72722
463.68        69.77296
464.12        69.53217
464.56        69.00549
465.01        68.17265
465.45        67.28297
465.89        67.24534
466.34          67.839
466.78        68.01044
467.22        67.73482
467.67        67.21299
468.11        67.24915
468.55        67.33631
468.99        67.56782
469.44        67.50818
469.88        67.14686
470.32         66.7897
470.77        66.52402
471.21        66.34412
471.65        66.26428
472.10        66.29449
472.54         66.3841
472.98        66.40507
473.42        66.31358
473.87        66.31609
474.31        66.32932
474.75        65.91468
475.20        65.28423
475.64        65.27773
476.08        65.81181
476.52        65.91455
476.97        65.50006
477.41        65.30305
477.85        65.51899
478.29        64.91338
478.74        65.34873
479.18        65.83144
479.62        65.31623
480.06        65.26647
480.50        65.17287
480.95        65.19847
481.39        65.37891
481.83        64.64982
482.27        64.78544
482.72        65.13274
483.16        64.96354
483.60        64.75494
484.04        65.00894
484.48        65.17406
484.93        65.26699
485.37        65.14585
485.81        64.82549
486.25        64.27987
486.69        66.26461
487.14        67.30907
487.58        65.81471
488.02        65.47454
488.46        64.23833
488.90        63.67319
489.34        64.74194
489.79         65.8269
490.23        65.31364
490.67        64.76944
491.11        63.98357
491.55        63.80865
491.99        64.18529
492.43        64.15656
492.88        63.73186
493.32        63.63262
493.76        63.85611
494.20        63.98314
494.64        63.97524
495.08        63.95576
495.52        63.92385
495.96        63.86614
496.41        63.78938
496.85         63.7243
497.29        63.57606
497.73        63.56796
498.17        62.96342
498.61        62.89518
499.05        63.11051
499.49        63.43795
499.93        63.53226
500.37        63.54382
500.82        63.44381
501.26        63.37047
501.70        63.39231
502.14        63.60061
502.58        63.91407
503.02        64.03852
503.46        63.94001
503.90        63.79766
504.34        63.63845
504.78        63.42469
505.22        63.17831
505.66        62.94011
506.10         62.7645
506.54        62.66074
506.98        62.62238
507.42         62.8822
507.86        62.98676
508.30        63.03746
508.74        63.07256
509.18        62.97854
509.62        62.85072
510.06        62.76363
510.50        62.74451
510.94        62.75978
511.38        62.79271
511.82        62.82197
512.26        62.83891
512.70        62.85725
513.14        62.86359
513.58        62.85661
514.02        62.84007
514.46        62.76512
514.90        62.65063
515.34        62.76494
515.78        62.74017
516.22        62.85592
516.66        62.94838
517.10        62.94047
517.54        62.81593
517.98        62.61402
518.42        62.39295
518.86        62.23598
519.30        62.16949
519.74        62.16441
520.18        62.20497
520.62        62.26274
521.06        62.32569
521.50        62.41337
521.93        62.49948
522.37        62.51943
522.81        62.47419
523.25        62.36784
523.69        62.27431
524.13         62.3162
524.57        62.50291
525.01        62.78424
525.45        63.04795
525.89        63.11147
526.32        62.93185
526.76        62.59827
527.20        62.20219
527.64        61.89132
528.08        61.71774
528.52        61.63834
528.96        61.64923
529.40        61.74258
529.83        61.89399
530.27        62.10983
530.71        62.32141
531.15        62.42089
531.59        62.38714
532.03        62.24392
532.46        62.04627
532.90        61.93435
533.34        61.92854
533.78        61.95139
534.22        61.97173
534.66        62.01612
535.09         62.0241
535.53        61.87747
535.97        61.60114
536.41        61.39231
536.85        61.27623
537.28        61.14346
537.72        61.04263
538.16        61.09972
538.60        61.31474
539.04        61.64407
539.47        61.96484
539.91        62.12732
540.35        62.08614
540.79        61.89286
541.22        61.64319
541.66        61.51418
542.10        61.54222
542.54        61.67041
542.97        61.82169
543.41        61.90502
543.85        61.88144
544.29        61.79618
544.72        61.66807
545.16         61.5495
545.60        61.44926
546.04        61.38625
546.47        61.37037
546.91        61.36801
547.35        61.40816
547.79        61.57273
548.22         61.7983
548.66        61.97526
549.10        62.08171
549.53        61.90356
549.97        61.54313
550.41        61.24228
550.84        61.09003
551.28        61.15113
551.72        61.35627
552.15        61.41779
552.59        61.31838
553.03        61.39336
553.46         61.4182
553.90        61.44253
554.34        61.38545
554.77        61.40835
555.21        61.42209
555.65        61.35171
556.08        61.51774
556.52        61.57345
556.96         61.5905
557.39         61.6507
557.83        61.70479
558.27        61.45821
558.70        60.99512
559.14        60.76242
559.57        60.77915
560.01        60.83371
560.45        60.89879
560.88        61.03019
561.32        61.20378
561.75        61.35226
562.19        61.44821
562.63        61.31827
563.06        61.05041
563.50          61.032
563.93        61.18888
564.37        61.26924
564.80        61.26204
565.24         61.1185
565.68        60.74229
566.11        61.33422
566.55        60.70934
566.98        60.54626
567.42        60.33957
567.85        60.56332
568.29        61.14845
568.72        61.47189
569.16         61.5565
569.60        61.96785
570.03        61.93932
570.47        62.17783
570.90        62.54024
571.34        61.69848
571.77        62.32063
572.21         62.5797
572.64        62.26897
573.08        62.80291
573.51        61.60718
573.95        61.72615
574.38        62.56012
574.82        62.44736
