SpectraSmart Spectrum 2.9.0.0
--------- Device Information -----------
Spectrum Name :  反射率_0
Saving Time :  2024/04/26 23:16:23
Spectro-Module Model Name : SE2030-DUVN
Spectro-Module Serial Number : OS361AC55029948
Wavelength Start : 200
Wavelength End : 1025
Wavelength Unit : Wavelength(nm)
Spectrum Unit : Reflectance(%)
-----------Spectrum Setting ------------
Integration Time : 20ms
Average : 10
Boxcar : 0
Background removal :  enabled
linearity correction :  enabled
SC :  disabled
Intensity correction :  disabled
DWT denoise :  enabled
savitzky-golay :  disabled
FFT :  disabled
Running average :  disabled
Kalman :  disabled
High pass :  disabled
---------------BEGIN--------------------
Wavelength(nm)             Reflectance(%)
200.29               0
200.75        54.08831
201.21        54.79771
201.67         55.0238
202.13        53.59007
202.58        50.23925
203.04        45.26326
203.50        39.81193
203.96        37.79518
204.42        42.02881
204.88        52.22543
205.34        64.92709
205.80        73.17498
206.26        74.56375
206.72        70.76398
207.18        65.71085
207.64        63.11963
208.10        63.30873
208.55        66.06393
209.01        68.90014
209.47        65.35515
209.93        55.85058
210.39        46.83541
210.85        41.43167
211.31         39.9785
211.77        42.22729
212.23        50.25755
212.69        75.21868
213.14        132.5806
213.60        156.8161
214.06        137.4026
214.52        116.9017
214.98        105.0738
215.44        97.47449
215.90        89.25735
216.36        82.05645
216.81         79.4546
217.27        82.68822
217.73        93.65208
218.19        108.6996
218.65        108.8837
219.11        90.99952
219.57        69.67432
220.02        55.83758
220.48        53.39426
220.94        60.37967
221.40        76.68714
221.86        101.6945
222.32        119.0346
222.77        113.7272
223.23        96.47028
223.69        78.35796
224.15        65.52403
224.61        57.44651
225.06        51.55462
225.52        47.84792
225.98        46.23793
226.44        46.21856
226.90        47.61193
227.36        49.33233
227.81        49.49051
228.27        47.89247
228.73        45.09621
229.19        42.35357
229.65        41.09025
230.10        41.33505
230.56        42.62105
231.02        43.87417
231.48        43.46725
231.93        41.25411
232.39        38.23691
232.85        35.58874
233.31        34.81833
233.77          36.017
234.22        38.61478
234.68         41.6649
235.14        43.81347
235.60        44.62714
236.05        44.48342
236.51        43.78826
236.97        43.40804
237.43        43.75662
237.88        44.62398
238.34        45.76717
238.80        47.09045
239.26        48.61683
239.71        50.78458
240.17        53.66778
240.63        57.44367
241.08        62.12584
241.54         67.2717
242.00        72.69865
242.46        78.71192
242.91        86.55521
243.37        96.50335
243.83        110.5131
244.28        128.3258
244.74        142.7176
245.20         148.447
245.66        146.0032
246.11        138.8672
246.57        129.4134
247.03        117.2316
247.48        103.0466
247.94        90.73618
248.40        83.26422
248.85        79.47282
249.31        77.62664
249.77        75.09356
250.22        70.82211
250.68        64.45326
251.14        56.56737
251.59          51.099
252.05        51.20105
252.51        55.66011
252.96        60.34009
253.42        61.62197
253.88        59.73796
254.33        56.03824
254.79        53.70949
255.25        55.25823
255.70        60.21719
256.16        67.26431
256.62        72.95698
257.07        72.38328
257.53        67.11167
257.99        60.44099
258.44        54.84723
258.90        52.44543
259.35        52.16388
259.81        53.11251
260.27         54.0138
260.72        53.43471
261.18        51.60626
261.63        49.07575
262.09        46.82837
262.55        45.43533
263.00        44.78454
263.46        44.63054
263.91        44.44025
264.37        43.81115
264.83        42.68663
265.28        41.26257
265.74        39.95473
266.19        39.00399
266.65        38.49582
267.11         38.2394
267.56        38.05571
268.02        37.67645
268.47        37.03837
268.93        36.25728
269.38        35.42688
269.84        34.73055
270.30        34.19087
270.75         33.7237
271.21        33.29389
271.66        32.80717
272.12        32.23856
272.57        31.60673
273.03        30.90901
273.48        30.13388
273.94        29.34611
274.39          28.539
274.85        27.81469
275.31         27.1978
275.76        26.67089
276.22        26.23987
276.67        25.85632
277.13        25.51482
277.58        25.16143
278.04        24.81485
278.49        24.40463
278.95         23.9261
279.40         23.3531
279.86        22.76589
280.31        22.17536
280.77        21.67427
281.22        21.25693
281.68         20.9399
282.13        20.70683
282.59        20.59368
283.04        20.56746
283.50        20.62305
283.95        20.70185
284.41        20.71486
284.86         20.6399
285.32        20.51958
285.77        20.38515
286.22         20.3324
286.68        20.38068
287.13        20.47311
287.59        20.59506
288.04        20.68937
288.50        20.75136
288.95        20.77155
289.41        20.76277
289.86        20.68938
290.32        20.58741
290.77        20.47457
291.22        20.39202
291.68        20.38689
292.13        20.47957
292.59        20.68551
293.04         21.0368
293.50        21.59401
293.95        22.34417
294.40        23.25721
294.86        24.26279
295.31        25.24395
295.77        26.17205
296.22        27.06705
296.68        27.96058
297.13        28.89702
297.58        29.90832
298.04         30.9893
298.49        32.16116
298.95        33.46926
299.40        34.90489
299.85        36.45812
300.31        38.07978
300.76        39.67803
301.21          41.232
301.67        42.76902
302.12        44.29852
302.58        45.90969
303.03        47.57999
303.48        49.30446
303.94        51.05578
304.39        52.74627
304.84        54.38848
305.30         56.0236
305.75        57.67183
306.20        59.43275
306.66         61.3288
307.11        63.29714
307.57        65.27552
308.02        67.08453
308.47        68.71113
308.93        70.20088
309.38        71.64725
309.83        73.29665
310.29        75.19199
310.74        77.25127
311.19        79.26467
311.65        80.86409
312.10        81.94312
312.55        82.60302
313.00        83.11423
313.46        83.90585
313.91        85.05995
314.36        86.48262
314.82        87.92282
315.27        88.97842
315.72         89.5333
316.18        89.74763
316.63        89.84547
317.08        90.21601
317.53        90.95902
317.99        91.94055
318.44        92.98551
318.89        93.78277
319.35        94.23603
319.80        94.44553
320.25        94.54614
320.70        94.75268
321.16        95.12558
321.61          95.631
322.06        96.15589
322.51        96.52973
322.97        96.69852
323.42        96.72842
323.87        96.77028
324.32        97.08202
324.78        97.68173
325.23        98.55682
325.68        99.42046
326.13        99.80763
326.59         99.6104
327.04        98.99937
327.49         98.3141
327.94        98.12168
328.39        98.56203
328.85        99.43703
329.30        100.5521
329.75        101.3153
330.20        101.5306
330.66        101.3434
331.11        101.0262
331.56        100.9452
332.01        101.2236
332.46        101.7226
332.92        102.2652
333.37        102.7145
333.82        102.9527
334.27        103.0905
334.72        103.1869
335.17        103.3126
335.63        103.5028
336.08        103.7797
336.53        104.1941
336.98         104.879
337.43        105.8357
337.88        106.9961
338.34        108.1887
338.79        109.2352
339.24         109.997
339.69        110.5134
340.14        110.7846
340.59        110.8427
341.05        110.7652
341.50        110.5563
341.95        110.3705
342.40        110.4366
342.85        110.8131
343.30        111.4595
343.75        112.2492
344.20        112.9497
344.66        113.4839
345.11        113.8934
345.56        114.2328
346.01        114.6039
346.46        115.0392
346.91        115.5031
347.36        115.9402
347.81        116.2857
348.26        116.5188
348.72        116.6467
349.17        116.7488
349.62        116.9852
350.07        117.3721
350.52        117.8787
350.97        118.2783
351.42        118.2097
351.87        117.6336
352.32        116.6872
352.77        115.7391
353.22        115.3237
353.67        115.5404
354.13         116.225
354.58         117.032
355.03        117.3426
355.48        116.9885
355.93        116.1474
356.38        115.1784
356.83        114.6231
357.28        114.5883
357.73        114.8817
358.18        115.1672
358.63        114.9173
359.08         114.015
359.53        112.6616
359.98         111.179
360.43        110.0219
360.88        109.2964
361.33         108.862
361.78        108.5007
362.23         107.873
362.68        106.9119
363.13        105.7616
363.58        104.6099
364.03         103.726
364.48        103.1649
364.93        102.8078
365.38        102.5333
365.83        102.1626
366.28        101.6306
366.73        100.9971
367.18        100.2719
367.63        99.46595
368.08        98.59921
368.53        97.66409
368.98        96.72633
369.43        95.89258
369.88        95.19115
370.33        94.61719
370.78         94.0971
371.23        93.50195
371.68        92.80412
372.13        92.03069
372.58        91.29041
373.03        90.75655
373.48        90.44311
373.93         90.2728
374.38        90.07584
374.83         89.5909
375.28        88.77396
375.72        87.71667
376.17        86.63084
376.62        85.72642
377.07        85.07944
377.52        84.63651
377.97        84.34979
378.42        84.15098
378.87        83.99026
379.32        83.84638
379.77        83.72501
380.22        83.63047
380.67        83.53582
381.11        83.45344
381.56        83.18881
382.01        82.54173
382.46        81.54418
382.91        80.34042
383.36        79.23298
383.81        78.62119
384.26        78.55072
384.71        78.87775
385.15        79.38186
385.60        79.66563
386.05        79.59779
386.50        79.28294
386.95        78.78418
387.40        78.21632
387.85        77.64806
388.29        77.00554
388.74        76.45016
389.19        76.00909
389.64        75.68575
390.09         75.4764
390.54        75.31857
390.98        75.08112
391.43        74.77248
391.88        74.41228
392.33        74.07347
392.78        73.81248
393.23        73.62874
393.67        73.59475
394.12        73.67091
394.57        73.34135
395.02        72.72948
395.47        72.58426
395.91        72.85954
396.36        72.79018
396.81        72.38052
397.26        72.09057
397.71        71.91383
398.15        71.69565
398.60        71.53329
399.05        71.17603
399.50        70.76164
399.95        71.02168
400.39        71.73571
400.84        71.55265
401.29        70.54291
401.74        70.02647
402.18        70.05555
402.63        69.72372
403.08        69.11767
403.53        68.83585
403.97        68.90246
404.42        69.10703
404.87         69.3183
405.32        69.35683
405.76        69.16147
406.21        68.84547
406.66        68.50644
407.11        68.25855
407.55        68.19654
408.00        68.33023
408.45        68.56918
408.90        68.71855
409.34        68.64793
409.79        68.22479
410.24         67.6302
410.68        67.31264
411.13        67.33762
411.58        67.48347
412.03        67.62872
412.47        67.65501
412.92        67.49479
413.37        67.22359
413.81        66.94463
414.26        66.87048
414.71        67.01437
415.15        67.33475
415.60        67.71071
416.05        68.00845
416.49        68.17182
416.94        68.22319
417.39        68.20925
417.83        68.19036
418.28        68.19641
418.73        68.21093
419.17        68.22265
419.62        68.22112
420.07        68.19918
420.51        68.14528
420.96        68.12247
421.41         68.1475
421.85        68.19617
422.30        68.37667
422.74        68.54193
423.19        68.46853
423.64        68.16865
424.08         67.9539
424.53         67.9127
424.98        67.98053
425.42        68.18349
425.87         68.6886
426.31        69.30269
426.76         69.3533
427.21        68.91397
427.65        68.71877
428.10        68.81634
428.54        68.84557
428.99        68.86913
429.44         68.8423
429.88        68.85751
430.33        69.47215
430.77        70.34296
431.22        70.56258
431.66        70.10873
432.11         69.6093
432.56        69.32571
433.00        69.27438
433.45        69.61557
433.89        70.51867
434.34        71.21822
434.78        71.76014
435.23         70.8579
435.67        68.23872
436.12        69.16673
436.57        69.50316
437.01        70.48153
437.46        70.92767
437.90        70.47174
438.35        70.08586
438.79        69.85807
439.24        69.81941
439.68        69.97382
440.13        70.47437
440.57         71.1969
441.02         71.3526
441.46        71.01945
441.91        71.58036
442.35        72.63223
442.80        72.40345
443.24        71.17984
443.69        71.16065
444.13        72.23788
444.58        72.64923
445.02        72.33592
445.47        72.27767
445.91        72.52134
446.36        72.72993
446.80        72.88763
447.24        73.07394
447.69        73.26099
448.13        73.38725
448.58        73.45821
449.02        73.45979
449.47         73.4256
449.91         73.3821
450.36        73.36457
450.80        73.34076
451.25        73.34335
451.69        73.36398
452.13        73.41382
452.58        73.48354
453.02        73.54613
453.47        73.56631
453.91        73.52817
454.36         73.4502
454.80        73.32825
455.24        73.13084
455.69        72.87306
456.13        72.62052
456.58        72.46027
457.02        72.15527
457.46        71.82761
457.91        72.15379
458.35        72.47591
458.79        72.42228
459.24        71.88012
459.68        71.13368
460.13        70.48003
460.57        70.29969
461.01        70.37392
461.46        70.83362
461.90        71.42767
462.34        71.84715
462.79         71.9688
463.23        71.91893
463.68         71.7078
464.12        71.39518
464.56        70.99663
465.01        70.55267
465.45        70.11022
465.89        69.75404
466.34        69.45685
466.78        69.57638
467.22        70.16655
467.67        69.07011
468.11        69.56152
468.55        69.45502
468.99         69.6543
469.44        69.63431
469.88        69.40528
470.32        69.17927
470.77        68.98928
471.21        68.88079
471.65        68.85487
472.10        68.89422
472.54        68.97028
472.98        68.99903
473.42        68.94393
473.87        69.00704
474.31        69.06917
474.75        68.62922
475.20         67.8974
475.64        67.75373
476.08        68.16539
476.52        68.20818
476.97         67.8066
477.41        67.73976
477.85        68.14347
478.29        67.61123
478.74        67.83981
479.18        68.55462
479.62        68.31861
480.06        68.44299
480.50        68.35061
480.95        68.23736
481.39        68.13439
481.83        67.82204
482.27        67.79718
482.72        67.97041
483.16        68.06588
483.60        67.87279
484.04        68.08398
484.48        68.22614
484.93        68.35487
485.37        68.05106
485.81        67.64081
486.25        67.31056
486.69        68.80029
487.14         69.9886
487.58        68.40141
488.02        67.90214
488.46        66.96003
488.90        66.81756
489.34        68.16335
489.79        68.95056
490.23        68.07814
490.67        67.45821
491.11        67.00009
491.55        66.96564
491.99        67.26118
492.43        67.22601
492.88        66.86172
493.32        66.74103
493.76         66.8839
494.20        66.97901
494.64        67.00407
495.08        67.04655
495.52        67.09915
495.96         67.1525
496.41        67.18206
496.85        67.18325
497.29        67.06072
497.73        67.01691
498.17        66.28773
498.61         66.2816
499.05        66.66385
499.49         66.7502
499.93        66.31952
500.37        66.31049
500.82        66.62191
501.26        66.67841
501.70        66.48927
502.14        66.46442
502.58        66.61962
503.02        66.72379
503.46        66.76835
503.90        66.86945
504.34        66.96986
504.78        66.92491
505.22        66.71533
505.66        66.40822
506.10         66.1257
506.54        65.94121
506.98        65.84633
507.42        66.18637
507.86        66.35365
508.30        66.15862
508.74         66.4343
509.18         66.3595
509.62        66.25578
510.06        66.14719
510.50        66.06412
510.94        65.97254
511.38        65.89076
511.82         65.8792
512.26        65.94302
512.70        66.07469
513.14        66.22891
513.58        66.32552
514.02        66.34509
514.46        66.30575
514.90        66.25274
515.34        66.26357
515.78        66.35133
516.22        66.48215
516.66        66.60882
517.10        66.65807
517.54        66.61213
517.98        66.50259
518.42        66.35396
518.86        66.20431
519.30         66.0731
519.74        65.94958
520.18        65.85609
520.62        65.82423
521.06        65.85834
521.50         65.9611
521.93        66.08679
522.37        66.13531
522.81        66.09615
523.25        65.98696
523.69        65.88395
524.13        65.91196
524.57        66.08346
525.01        66.34328
525.45        66.59113
525.89        66.66605
526.32        66.52664
526.76        66.25674
527.20        65.92442
527.64        65.64096
528.08        65.45121
528.52        65.32201
528.96        65.27472
529.40        65.34113
529.83        65.50578
530.27        65.76406
530.71        66.02169
531.15        66.13084
531.59        66.06089
532.03        65.84781
532.46        65.57533
532.90        65.42876
533.34        65.43973
533.78        65.52001
534.22        65.60555
534.66        65.67744
535.09        65.66388
535.53        65.45077
535.97        65.11243
536.41        64.93182
536.85         64.9447
537.28        65.00839
537.72        65.10091
538.16         65.2393
538.60        65.39898
539.04        65.57101
539.47        65.70306
539.91        65.75775
540.35        65.71389
540.79        65.58666
541.22        65.41935
541.66        65.30558
542.10        65.26393
542.54        65.27777
542.97        65.30421
543.41        65.30264
543.85        65.25337
544.29        65.18246
544.72        65.11052
545.16        65.10113
545.60        65.15097
546.04        65.25918
546.47        65.40131
546.91        65.49851
547.35        65.54789
547.79        65.63622
548.22        65.74413
548.66        65.77073
549.10        65.77863
549.53        65.75975
549.97        65.73113
550.41        65.58395
550.84        65.40022
551.28        65.34884
551.72        65.37718
552.15        65.45987
552.59         65.6671
553.03        65.04787
553.46        65.55872
553.90        65.48954
554.34        65.41132
554.77        65.32697
555.21        65.28556
555.65        65.31478
556.08         65.3935
556.52         65.4731
556.96        65.51456
557.39        65.63369
557.83         65.7707
558.27        65.56528
558.70         65.1054
559.14        64.93833
559.57        65.05528
560.01        65.07228
560.45        64.99436
560.88        65.10711
561.32         65.3862
561.75        65.54206
562.19        65.56382
562.63         65.5123
563.06        65.41201
563.50        65.35149
563.93         65.2914
564.37        65.24084
564.80        65.23893
565.24        65.19376
565.68        64.95281
566.11        65.66982
566.55        64.98484
566.98        64.79819
567.42        64.59204
567.85        64.77305
568.29        65.28036
568.72        65.64629
569.16        65.89552
569.60        66.03459
570.03        66.26465
570.47        66.41865
570.90        66.59615
571.34        66.13401
571.77          66.406
572.21        66.85605
572.64          66.311
573.08        67.06292
573.51        66.07214
573.95        66.13898
574.38         66.6356
574.82        66.75446
