SpectraSmart Spectrum 2.9.0.0
--------- Device Information -----------
Spectrum Name :  反射率_0
Saving Time :  2024/04/26 23:22:17
Spectro-Module Model Name : SE2030-DUVN
Spectro-Module Serial Number : OS361AC55029948
Wavelength Start : 200
Wavelength End : 1025
Wavelength Unit : Wavelength(nm)
Spectrum Unit : Reflectance(%)
-----------Spectrum Setting ------------
Integration Time : 20ms
Average : 10
Boxcar : 0
Background removal :  enabled
linearity correction :  enabled
SC :  disabled
Intensity correction :  disabled
DWT denoise :  enabled
savitzky-golay :  disabled
FFT :  disabled
Running average :  disabled
Kalman :  disabled
High pass :  disabled
---------------BEGIN--------------------
Wavelength(nm)             Reflectance(%)
200.29               0
200.75        59.01759
201.21        59.62026
201.67        60.36922
202.13        60.21642
202.58        58.96336
203.04        57.11896
203.50        55.51429
203.96        56.27431
204.42        60.64503
204.88        68.04845
205.34        75.82556
205.80        79.45023
206.26        77.75632
206.72        72.36376
207.18        66.34773
207.64        61.96707
208.10        59.20265
208.55        57.84322
209.01        56.54329
209.47        53.99117
209.93        51.13122
210.39         49.2416
210.85        49.54838
211.31         53.4423
211.77        62.62506
212.23        83.40446
212.69        133.2853
213.14         208.367
213.60        189.5887
214.06        124.9008
214.52        85.38076
214.98        69.21785
215.44        63.83121
215.90        62.39563
216.36         63.7733
216.81        67.31887
217.27        73.05038
217.73        83.59863
218.19        96.40478
218.65        97.07693
219.11        83.30651
219.57        65.95064
220.02        54.44221
220.48          52.645
220.94        59.08784
221.40        74.15423
221.86        97.53316
222.32        114.4219
222.77        110.7582
223.23        95.66817
223.69        79.81973
224.15        69.42942
224.61        63.77713
225.06        60.22139
225.52        58.04543
225.98        56.26005
226.44        54.64701
226.90         53.6073
227.36        53.17951
227.81         53.3412
228.27        54.05967
228.73        54.80263
229.19        55.72342
229.65        57.18174
230.10        59.01927
230.56        61.11696
231.02        62.37197
231.48        61.13504
231.93        57.44067
232.39        52.50083
232.85        47.80907
233.31        45.24621
233.77        44.96649
234.22        46.36024
234.68        48.43341
235.14        49.70744
235.60        49.71288
236.05        48.86935
236.51        47.62096
236.97        46.94342
237.43        47.28223
237.88          48.375
238.34        49.87109
238.80        51.51296
239.26        53.30322
239.71        55.81033
240.17        59.08903
240.63        63.32977
241.08        68.50124
241.54        73.78494
242.00        79.51623
242.46        87.24421
242.91        99.03133
243.37         116.317
243.83         139.588
244.28        159.0861
244.74        159.4098
245.20        140.1971
245.66        116.3581
246.11        100.8931
246.57        94.44465
247.03        93.37832
247.48        93.53531
247.94        88.97726
248.40        80.90234
248.85        72.84832
249.31        67.15289
249.77         64.2375
250.22        63.30816
250.68        63.72365
251.14         64.6016
251.59        63.85056
252.05        61.27598
252.51        58.49356
252.96        56.45926
253.42        56.24266
253.88        57.26706
254.33        58.16687
254.79        59.57694
255.25        61.68858
255.70        64.15167
256.16        67.01824
256.62        68.20065
257.07        64.99685
257.53        59.36146
257.99        53.48443
258.44        49.09256
258.90        47.81271
259.35        48.54662
259.81        50.46182
260.27        52.31416
260.72        52.62017
261.18        51.51549
261.63        49.52812
262.09        47.52626
262.55        45.96724
263.00        44.83129
263.46        44.00257
263.91        43.19378
264.37         42.3196
264.83        41.33596
265.28        40.29386
265.74        39.41605
266.19        38.70173
266.65        38.19791
267.11        37.80298
267.56        37.42389
268.02        36.92721
268.47        36.29022
268.93        35.57276
269.38        34.83342
269.84        34.21048
270.30        33.70825
270.75        33.26356
271.21          32.843
271.66         32.3467
272.12        31.75689
272.57        31.10027
273.03        30.38171
273.48        29.60647
273.94        28.84223
274.39        28.06909
274.85        27.40661
275.31        26.90445
275.76        26.53819
276.22        26.30494
276.67        26.09323
277.13        25.80678
277.58        25.38883
278.04        24.89485
278.49        24.34661
278.95        23.87535
279.40        23.46981
279.86        23.15269
280.31        22.84036
280.77        22.49482
281.22        22.08424
281.68        21.67189
282.13        21.30354
282.59        21.10138
283.04        21.04893
283.50        21.11426
283.95        21.19826
284.41        21.15026
284.86        20.94368
285.32        20.65785
285.77        20.36935
286.22        20.23352
286.68        20.27451
287.13        20.40194
287.59        20.57655
288.04        20.70397
288.50        20.76593
288.95         20.7727
289.41        20.71478
289.86        20.52378
290.32        20.24243
290.77        19.89684
291.22        19.60053
291.68        19.51201
292.13         19.6599
292.59        20.01809
293.04        20.51959
293.50        21.06385
293.95        21.61146
294.40        22.20154
294.86        22.85512
295.31        23.59739
295.77        24.44591
296.22        25.37666
296.68        26.40402
297.13        27.54548
297.58        28.80644
298.04        30.18481
298.49        31.65088
298.95        33.16717
299.40        34.70871
299.85        36.28299
300.31        37.89919
300.76        39.56282
301.21        41.28204
301.67        43.06683
302.12        44.88963
302.58         46.7777
303.03        48.69771
303.48        50.66979
303.94        52.70744
304.39        54.78062
304.84         56.9048
305.30        59.08523
305.75        61.28967
306.20        63.54506
306.66        65.85138
307.11        68.16232
307.57         70.4325
308.02        72.50436
308.47        74.37775
308.93        76.08929
309.38        77.74435
309.83        79.61875
310.29        81.75867
310.74        84.07781
311.19        86.33913
311.65        88.11967
312.10        89.30679
312.55        90.03181
313.00        90.59671
313.46         91.4819
313.91        92.78069
314.36        94.37206
314.82         96.0182
315.27        97.33681
315.72        98.19576
316.18        98.75254
316.63         99.1348
317.08        99.58978
317.53         100.203
317.99        100.8793
318.44        101.5973
318.89        102.2994
319.35        102.9427
319.80        103.5511
320.25        104.0885
320.70        104.4924
321.16        104.7555
321.61        104.9375
322.06        105.0626
322.51        105.1884
322.97        105.3321
323.42          105.49
323.87        105.7368
324.32        106.2119
324.78        106.8878
325.23        107.7994
325.68        108.6766
326.13        109.0789
326.59        108.9078
327.04        108.3125
327.49        107.6337
327.94        107.4544
328.39         107.917
328.85        108.8245
329.30        109.9761
329.75        110.7402
330.20        110.9182
330.66        110.6704
331.11        110.3096
331.56        110.2601
332.01        110.6558
332.46        111.3292
332.92        112.0662
333.37        112.6798
333.82        113.0183
334.27        113.2054
334.72        113.2835
335.17        113.2988
335.63        113.2976
336.08        113.3257
336.53        113.4911
336.98        114.0285
337.43        114.9589
337.88          116.17
338.34        117.4605
338.79        118.6026
339.24        119.4234
339.69        119.9948
340.14        120.2339
340.59        120.0407
341.05        119.5061
341.50        118.6874
341.95        117.9594
342.40        117.8893
342.85        118.5861
343.30        119.8932
343.75        121.4365
344.20        122.5692
344.66        123.0911
345.11        123.1601
345.56        122.9937
346.01         122.962
346.46        123.1864
346.91        123.5512
347.36        123.9378
347.81        124.1895
348.26        124.2552
348.72        124.1829
349.17        124.0877
349.62        124.1717
350.07        124.4595
350.52        124.9046
350.97        125.2284
351.42        124.9927
351.87        124.1581
352.32        122.9033
352.77        121.6797
353.22        121.1428
353.67        121.4045
354.13        122.2389
354.58        123.2356
355.03        123.6661
355.48        123.3151
355.93        122.3946
356.38        121.2439
356.83        120.3742
357.28        119.9091
357.73        119.6714
358.18        119.4341
358.63         118.857
359.08        117.8655
359.53        116.6094
359.98        115.2915
360.43        114.1733
360.88        113.3139
361.33        112.6331
361.78        111.9801
362.23        111.1297
362.68        110.0466
363.13        108.8205
363.58        107.6204
364.03        106.6922
364.48         106.073
364.93        105.6613
365.38        105.2919
365.83        104.7097
366.28        103.8513
366.73        102.8082
367.18        101.6887
367.63        100.6574
368.08        99.76611
368.53        98.96159
368.98        98.21755
369.43        97.49016
369.88        96.76151
370.33        96.06236
370.78        95.37474
371.23        94.66688
371.68        93.93922
372.13        93.18494
372.58          92.465
373.03        91.88085
373.48        91.43237
373.93        91.07394
374.38         90.6843
374.83        90.07732
375.28        89.22173
375.72        88.17161
376.17         87.1021
376.62         86.1667
377.07        85.42755
377.52        84.86392
377.97        84.42048
378.42        84.01812
378.87        83.62527
379.32        83.22659
379.77         82.9058
380.22        82.78217
380.67        82.83722
381.11        83.04745
381.56        83.09988
382.01        82.58116
382.46        81.47023
382.91        79.98294
383.36        78.54333
383.81        77.72424
384.26        77.60939
384.71        77.99873
385.15        78.61255
385.60        78.95599
386.05        78.86483
386.50        78.48034
386.95        77.88997
387.40        77.24116
387.85        76.61502
388.29        75.92252
388.74        75.31894
389.19        74.83083
389.64        74.45751
390.09        74.19551
390.54        73.98668
390.98        73.70628
391.43        73.37075
391.88        73.00337
392.33        72.66261
392.78        72.41143
393.23         72.2503
393.67        72.16862
394.12        72.16432
394.57        71.95812
395.02        71.58838
395.47        71.38477
395.91         71.3338
396.36        71.09475
396.81        70.70187
397.26        70.37946
397.71          70.115
398.15        69.84135
398.60         69.6497
399.05        69.28529
399.50        68.88575
399.95        69.13721
400.39        69.84042
400.84        69.74894
401.29        68.88589
401.74        68.42268
402.18        68.38071
402.63        67.87162
403.08        67.07232
403.53        66.74342
403.97        66.93291
404.42        67.36546
404.87        67.79494
405.32        67.88147
405.76        67.54365
406.21        66.93404
406.66        66.27367
407.11        65.97166
407.55        66.14845
408.00        66.46773
408.45        66.80599
408.90         67.3764
409.34        67.85006
409.79        67.28473
410.24        66.03231
410.68        65.45137
411.13        65.66528
411.58        65.98053
412.03        66.19733
412.47        66.26937
412.92        66.09932
413.37        65.75865
413.81        65.38438
414.26        65.22666
414.71        65.31045
415.15        65.58523
415.60        65.92894
416.05        66.20109
416.49        66.34776
416.94        66.40695
417.39        66.42252
417.83        66.44286
418.28        66.49805
418.73        66.57097
419.17        66.66218
419.62        66.78169
420.07        66.90702
420.51        67.00278
420.96        67.10104
421.41         67.1369
421.85         67.0755
422.30        67.16962
422.74        67.26647
423.19        66.88229
423.64        66.15674
424.08        65.96458
424.53        66.33857
424.98        66.58398
425.42        66.67021
425.87        67.14317
426.31        67.80468
426.76        67.77182
427.21         67.1384
427.65        66.77174
428.10        66.78269
428.54        66.82097
428.99        66.95117
429.44        67.15546
429.88        67.46671
430.33        68.22524
430.77        69.07467
431.22        69.40033
431.66        69.14239
432.11        68.42793
432.56        67.66028
433.00        67.67108
433.45        68.49625
433.89        69.41306
434.34        69.80986
434.78        69.75774
435.23        69.36299
435.67        67.41796
436.12        68.11908
436.57        68.46995
437.01        69.37454
437.46        69.75655
437.90        69.54047
438.35        69.31869
438.79        69.18566
439.24        69.15411
439.68        69.23187
440.13        69.43422
440.57        69.78321
441.02        70.07999
441.46        70.27515
441.91        70.94167
442.35        71.71561
442.80        71.44875
443.24        70.42131
443.69        70.45745
444.13         71.4559
444.58        71.86155
445.02        71.62172
445.47        71.64247
445.91        71.97794
446.36        72.27415
446.80        72.50088
447.24        72.83007
447.69        73.19894
448.13        73.13947
448.58        73.13304
449.02        72.97755
449.47        72.88953
449.91        72.83655
450.36        72.86896
450.80        73.00413
451.25        73.20538
451.69        73.32774
452.13        73.35856
452.58        73.33589
453.02        73.29444
453.47        73.26771
453.91        73.25113
454.36        73.28145
454.80         73.3353
455.24        73.03632
455.69        72.86113
456.13        72.56673
456.58        72.36107
457.02        71.87899
457.46        71.33821
457.91        71.49345
458.35        72.08054
458.79        72.09287
459.24        71.53786
459.68        70.84375
460.13        70.26791
460.57        70.10464
461.01        70.49946
461.46        70.55811
461.90        71.07896
462.34        72.00539
462.79        71.56438
463.23        71.69016
463.68        71.72594
464.12        71.59522
464.56        71.20883
465.01        70.43937
465.45        69.50201
465.89        69.16538
466.34         69.3982
466.78        69.66681
467.22        69.84932
467.67        69.85797
468.11        69.74289
468.55        69.74496
468.99        69.85647
469.44        69.79037
469.88        69.56289
470.32           69.37
470.77        69.25538
471.21        69.19023
471.65        69.16949
472.10         69.2066
472.54        69.26656
472.98        69.25284
473.42        69.14304
473.87        69.11909
474.31        69.09235
474.75        68.68996
475.20        68.14845
475.64        67.99106
476.08        68.72388
476.52         68.8418
476.97        68.41603
477.41        68.23172
477.85        68.47969
478.29        67.92085
478.74        67.93684
479.18        68.90509
479.62        68.29586
480.06        68.42596
480.50        68.39471
480.95         68.3468
481.39        68.28837
481.83        68.18258
482.27        67.71001
482.72        68.68671
483.16        68.12659
483.60        68.31798
484.04         68.3826
484.48        68.72199
484.93         68.4646
485.37         68.6891
485.81         67.7379
486.25        67.42732
486.69         68.3898
487.14        69.32515
487.58        68.08001
488.02        68.53139
488.46        67.73827
488.90        67.62193
489.34        68.73833
489.79        69.37327
490.23        69.10261
490.67        68.42545
491.11         67.5388
491.55        67.42852
491.99        67.98705
492.43        68.03638
492.88        67.54009
493.32        67.30392
493.76        67.40392
494.20        67.51189
494.64        67.60474
495.08        67.83469
495.52        68.08835
495.96        68.00147
496.41        67.61594
496.85        67.44424
497.29        67.41877
497.73        67.36584
498.17        66.55296
498.61        66.71535
499.05        67.37645
499.49        67.85651
499.93        67.75619
500.37        67.73184
500.82        67.78365
501.26        67.61063
501.70        67.66652
502.14        67.76213
502.58        67.79752
503.02        67.89076
503.46        67.96912
503.90        68.07809
504.34        68.16263
504.78         68.1165
505.22        67.92022
505.66        67.64782
506.10        67.40746
506.54        67.23717
506.98         67.1412
507.42        67.60684
507.86        67.62474
508.30        67.78436
508.74        67.76839
509.18        67.64275
509.62        67.46313
510.06        67.33792
510.50        67.30877
510.94        67.33711
511.38          67.389
511.82        67.41058
512.26        67.38861
512.70        67.34534
513.14        67.31875
513.58        67.36463
514.02        67.49162
514.46        67.67313
514.90        67.85821
515.34        67.97354
515.78        67.99696
516.22        67.93968
516.66        67.84001
517.10        67.78934
517.54        67.76208
517.98        67.78477
518.42        67.80798
518.86        67.77654
519.30        67.68104
519.74        67.53967
520.18        67.41407
520.62        67.39417
521.06        67.49609
521.50        67.69663
521.93         67.9103
522.37        67.97649
522.81        67.87273
523.25        67.64368
523.69        67.40484
524.13        67.33797
524.57        67.47259
525.01        67.73758
525.45        68.01629
525.89        68.12025
526.32        67.99722
526.76        67.74005
527.20        67.41806
527.64        67.14354
528.08         66.9618
528.52        66.83534
528.96        66.78668
529.40        66.85242
529.83        67.01785
530.27        67.27824
530.71        67.53712
531.15        67.64246
531.59        67.56338
532.03        67.33791
532.46        67.05209
532.90        66.89606
533.34        66.90124
533.78        66.97495
534.22        67.05261
534.66        67.11613
535.09        67.09234
535.53        66.86732
535.97        66.51016
536.41        66.29875
536.85        66.27071
537.28        66.28513
537.72        66.33984
538.16        66.48441
538.60        66.69806
539.04        66.95938
539.47        67.18849
539.91        67.30647
540.35        67.28245
540.79        67.14462
541.22        66.95391
541.66        66.83411
542.10        66.81149
542.54        66.85606
542.97        66.91875
543.41        66.95197
543.85        66.93029
544.29        66.88185
544.72        66.81827
545.16        66.79425
545.60         66.8095
546.04        66.85519
546.47        66.92139
546.91        67.00022
547.35        67.08031
547.79        67.12805
548.22        67.14707
548.66        67.20731
549.10        67.33979
549.53        67.33185
549.97         67.2085
550.41        67.00237
550.84        66.79856
551.28        66.73886
551.72        66.80652
552.15        66.77905
552.59        67.16267
553.03        66.70745
553.46         67.3414
553.90        67.37512
554.34        67.32961
554.77        67.22205
555.21        67.12669
555.65        67.11104
556.08        67.16413
556.52        67.26608
556.96          67.345
557.39        67.37295
557.83        67.32862
558.27        67.08118
558.70        66.70682
559.14        66.53952
559.57        66.55846
560.01        66.53176
560.45        66.47635
560.88        66.53538
561.32        66.72503
561.75        67.02785
562.19        67.35187
562.63        67.30451
563.06        66.96557
563.50        66.91663
563.93        67.09941
564.37        67.14362
564.80        67.07813
565.24        67.01059
565.68        66.79322
566.11        67.52683
566.55        66.78394
566.98        66.57764
567.42        66.36011
567.85        66.44237
568.29        66.79338
568.72        67.12811
569.16        67.49193
569.60          67.589
570.03        67.60907
570.47        67.81671
570.90        68.35851
571.34        67.02848
571.77        67.83127
572.21        67.80627
572.64         67.7987
573.08        68.22092
573.51        67.47666
573.95        67.47398
574.38        67.91674
574.82          67.831
