SpectraSmart Spectrum 2.9.0.0
--------- Device Information -----------
Spectrum Name :  反射率_0
Saving Time :  2024/04/26 23:23:44
Spectro-Module Model Name : SE2030-DUVN
Spectro-Module Serial Number : OS361AC55029948
Wavelength Start : 200
Wavelength End : 1025
Wavelength Unit : Wavelength(nm)
Spectrum Unit : Reflectance(%)
-----------Spectrum Setting ------------
Integration Time : 20ms
Average : 10
Boxcar : 0
Background removal :  enabled
linearity correction :  enabled
SC :  disabled
Intensity correction :  disabled
DWT denoise :  enabled
savitzky-golay :  disabled
FFT :  disabled
Running average :  disabled
Kalman :  disabled
High pass :  disabled
---------------BEGIN--------------------
Wavelength(nm)             Reflectance(%)
200.29               0
200.75        34.16369
201.21        39.12465
201.67        43.33046
202.13        45.36196
202.58        45.20341
203.04        43.66138
203.50         40.9362
203.96        37.96317
204.42        35.78646
204.88        34.18837
205.34        33.91689
205.80        35.85937
206.26        39.33599
206.72        43.40997
207.18        46.48568
207.64        47.22949
208.10        45.71549
208.55        42.34844
209.01         36.5919
209.47         31.6945
209.93         30.9372
210.39        32.72794
210.85        35.63956
211.31        39.73819
211.77        46.52747
212.23        60.85209
212.69         95.4129
213.14         151.591
213.60        145.7395
214.06        103.2172
214.52        75.30653
214.98        63.16164
215.44        58.24445
215.90        55.52866
216.36        54.40947
216.81        54.60941
217.27        56.28394
217.73        61.26808
218.19        67.54334
218.65        65.87981
219.11        55.82358
219.57        44.29004
220.02        37.79869
220.48        39.56854
220.94        49.02081
221.40        67.41872
221.86        93.65187
222.32        109.0091
222.77        98.84973
223.23        76.37366
223.69        55.37886
224.15        43.26329
224.61        38.25579
225.06        36.44294
225.52        36.48932
225.98        37.18224
226.44        38.01981
226.90        39.42666
227.36         40.5284
227.81        39.74562
228.27        37.17453
228.73        33.41027
229.19        29.96196
229.65        28.55095
230.10        29.20374
230.56        31.33897
231.02        33.74834
231.48        34.48604
231.93        33.22839
232.39        30.98601
232.85        28.88477
233.31        28.39691
233.77         29.6573
234.22         32.1096
234.68         34.9542
235.14         37.0927
235.60        38.18037
236.05        38.59614
236.51         38.6364
236.97        38.84751
237.43        39.51591
237.88        40.47932
238.34        41.77912
238.80        43.81914
239.26        46.91418
239.71        51.72654
240.17        58.14285
240.63        65.24158
241.08        72.06873
241.54        77.53369
242.00        82.63593
242.46         90.7788
242.91        105.1566
243.37        127.9243
243.83         159.036
244.28        182.7879
244.74        177.8133
245.20        146.1956
245.66        111.4749
246.11        93.27144
246.57        91.42294
247.03        99.74853
247.48         110.507
247.94        110.5703
248.40        100.5883
248.85        88.43404
249.31        78.95118
249.77        73.93174
250.22        72.39069
250.68        72.48206
251.14        74.01538
251.59        76.36279
252.05        78.74319
252.51        81.93633
252.96        83.16956
253.42        80.38176
253.88        74.65631
254.33        67.17262
254.79        62.39965
255.25        64.06029
255.70        71.30849
256.16        82.15055
256.62        91.50064
257.07        91.84016
257.53        85.11774
257.99        76.23808
258.44        68.78278
258.90        65.70168
259.35        65.66825
259.81        67.39465
260.27        69.27611
260.72        69.49573
261.18        68.20066
261.63        65.93674
262.09        63.84191
262.55        62.52258
263.00        61.83904
263.46        61.57906
263.91        61.06376
264.37        59.82361
264.83         57.8489
265.28        55.44972
265.74        53.24878
266.19        51.65549
266.65        50.78893
267.11        50.36412
267.56        50.12846
268.02         49.7075
268.47        48.98159
268.93        48.09668
269.38        47.11263
269.84        46.17152
270.30        45.30347
270.75        44.45044
271.21        43.63179
271.66        42.83098
272.12        42.04358
272.57        41.23701
273.03        40.43549
273.48        39.65964
273.94        38.95139
274.39        38.26991
274.85        37.58276
275.31        36.69655
275.76        35.59746
276.22        34.41633
276.67        33.28997
277.13        32.50485
277.58        32.04926
278.04        31.84026
278.49        31.68844
278.95        31.43105
279.40         30.9709
279.86        30.44197
280.31         29.8329
280.77         29.2318
281.22         28.6341
281.68        28.06923
282.13        27.56803
282.59        27.25982
283.04        27.11997
283.50        27.14043
283.95        27.20919
284.41        27.15349
284.86        26.94126
285.32        26.65482
285.77        26.39556
286.22        26.37106
286.68        26.60425
287.13         26.9753
287.59        27.38618
288.04        27.64275
288.50        27.71727
288.95        27.65236
289.41        27.51002
289.86        27.31216
290.32        27.13188
290.77        26.96237
291.22        26.88831
291.68        27.01929
292.13        27.37181
292.59        27.95061
293.04        28.70246
293.50        29.54814
293.95        30.44933
294.40        31.42508
294.86        32.49643
295.31        33.69148
295.77        35.01406
296.22        36.41753
296.68        37.87681
297.13        39.34633
297.58        40.82021
298.04        42.31438
298.49        43.82457
298.95        45.36351
299.40         46.9212
299.85        48.49583
300.31        50.09904
300.76        51.72773
301.21        53.38753
301.67        55.09241
302.12        56.79387
302.58        58.50484
303.03        60.17571
303.48        61.82796
303.94          63.491
304.39        65.14319
304.84        66.81152
305.30         68.5116
305.75        70.18546
306.20         71.8345
306.66        73.46682
307.11        75.04166
307.57         76.5871
308.02        78.04348
308.47        79.42201
308.93        80.73087
309.38        81.96401
309.83         83.2253
310.29        84.53577
310.74        85.87205
311.19        87.13245
311.65        88.12357
312.10        88.79607
312.55         89.2077
313.00        89.55817
313.46        90.16177
313.91        91.05804
314.36        92.17913
314.82        93.31124
315.27        94.11713
315.72        94.49618
316.18        94.58491
316.63        94.54868
317.08        94.69418
317.53        95.10623
317.99        95.67555
318.44        96.31126
318.89        96.83801
319.35        97.18957
319.80        97.42771
320.25        97.58568
320.70        97.71204
321.16        97.83277
321.61        97.97279
322.06        98.11939
322.51        98.26894
322.97        98.41135
323.42        98.55017
323.87        98.76659
324.32        99.20934
324.78        99.85108
325.23        100.7107
325.68        101.4976
326.13        101.7427
326.59        101.3544
327.04        100.5092
327.49        99.59042
327.94        99.23544
328.39        99.59995
328.85        100.4711
329.30        101.6337
329.75        102.4478
330.20        102.6925
330.66        102.5198
331.11        102.1899
331.56        102.0496
332.01        102.2237
332.46        102.5803
332.92        102.9653
333.37          103.29
333.82        103.4543
334.27        103.5568
334.72         103.663
335.17        103.8479
335.63        104.1369
336.08         104.551
336.53        105.0866
336.98        105.7887
337.43         106.638
337.88        107.5793
338.34         108.518
338.79        109.4154
339.24        110.1682
339.69        110.7807
340.14        111.1629
340.59        111.1935
341.05        110.9223
341.50        110.4172
341.95        109.9213
342.40        109.7968
342.85        110.1301
343.30        110.8193
343.75        111.6964
344.20        112.4642
344.66        113.0127
345.11        113.4106
345.56        113.6705
346.01        113.8271
346.46        113.9224
346.91        113.9493
347.36        113.9703
347.81        114.1039
348.26        114.3652
348.72        114.7102
349.17        115.0971
349.62        115.4875
350.07        115.8426
350.52        116.1796
350.97        116.3629
351.42        116.1839
351.87        115.6376
352.32        114.8032
352.77        113.9626
353.22        113.5245
353.67        113.5657
354.13        113.9767
354.58        114.4879
355.03        114.6049
355.48        114.1981
355.93        113.4008
356.38        112.5266
356.83        112.0507
357.28        112.0504
357.73         112.348
358.18        112.6019
358.63        112.2751
359.08        111.2587
359.53        109.7668
359.98        108.1354
360.43        106.8424
360.88         106.007
361.33        105.4863
361.78        105.0924
362.23        104.5299
362.68        103.7252
363.13        102.7952
363.58        101.8563
364.03        101.0697
364.48        100.4634
364.93        99.94408
365.38        99.44135
365.83        98.86711
366.28         98.1899
366.73        97.45276
367.18        96.64884
367.63        95.75549
368.08        94.79221
368.53        93.78193
368.98        92.80646
369.43        91.99138
369.88        91.36719
370.33        90.90394
370.78        90.53529
371.23        90.14909
371.68        89.69876
372.13        89.19141
372.58        88.65533
373.03        88.14149
373.48        87.65031
373.93        87.15371
374.38        86.58498
374.83        85.85284
375.28        84.96122
375.72        83.95035
376.17        82.98161
376.62        82.18549
377.07        81.60672
377.52        81.22387
377.97        80.96289
378.42        80.70921
378.87        80.42062
379.32        80.09173
379.77        79.80534
380.22        79.68683
380.67        79.72789
381.11        79.90019
381.56        79.93742
382.01        79.50034
382.46        78.57021
382.91        77.32858
383.36        76.11611
383.81        75.39233
384.26        75.22848
384.71        75.44976
385.15        75.87984
385.60        76.11385
386.05        76.03607
386.50        75.74744
386.95        75.31029
387.40        74.83105
387.85        74.36278
388.29        73.82244
388.74        73.33572
389.19        72.89391
389.64         72.4957
390.09        72.14832
390.54        71.82556
390.98        71.45999
391.43        71.08905
391.88         70.7295
392.33        70.42367
392.78        70.20534
393.23        70.06535
393.67        70.00747
394.12         70.0444
394.57        69.89659
395.02        69.61904
395.47        69.59493
395.91         69.7473
396.36         69.5847
396.81        69.11005
397.26        68.59804
397.71        68.16296
398.15        67.84985
398.60        67.75275
399.05        67.75208
399.50        67.79072
399.95        67.86137
400.39        67.91028
400.84        67.75444
401.29        67.40412
401.74        67.02995
402.18        66.67104
402.63        66.21337
403.08        65.78012
403.53        65.57919
403.97        65.62308
404.42        65.84815
404.87        66.10706
405.32        66.13325
405.76        65.87283
406.21        65.51134
406.66        65.12788
407.11         64.7887
407.55        64.65421
408.00        64.71758
408.45        64.94852
408.90        65.59366
409.34        66.24889
409.79        65.65984
410.24        64.18587
410.68        63.49288
411.13        63.70432
411.58        63.91515
412.03        63.94898
412.47        63.93066
412.92        63.78564
413.37        63.52418
413.81        63.25384
414.26        63.18786
414.71        63.33546
415.15        63.65431
415.60        64.01798
416.05        64.27401
416.49          64.367
416.94        64.33659
417.39        64.23438
417.83        64.12483
418.28        64.04343
418.73        63.97225
419.17        63.92507
419.62        63.92875
420.07        63.97466
420.51        64.03555
420.96        64.11605
421.41        64.14315
421.85        64.07712
422.30        64.06515
422.74        64.02229
423.19         63.7676
423.64        63.35256
424.08        63.16129
424.53        63.20826
424.98        63.22023
425.42        63.19318
425.87        63.37345
426.31        63.67287
426.76        63.59718
427.21        63.23643
427.65        63.18119
428.10        63.40143
428.54         63.5293
428.99        63.59074
429.44        63.46718
429.88        63.33257
430.33        63.94313
430.77         64.9188
431.22        65.22466
431.66        64.78104
432.11        63.98909
432.56        63.20242
433.00        63.08488
433.45        63.76217
433.89        64.55676
434.34        64.77184
434.78         65.6396
435.23        64.58102
435.67        62.89075
436.12        63.86181
436.57        64.03535
437.01        64.36553
437.46        64.38736
437.90        64.10236
438.35        63.75631
438.79         63.4751
439.24         63.3832
439.68        63.47074
440.13        63.86434
440.57         64.4506
441.02        64.49664
441.46           64.11
441.91        64.58852
442.35        65.52686
442.80        65.40885
443.24         64.4872
443.69         64.3331
444.13         64.8503
444.58        65.95815
445.02        65.53387
445.47        65.62468
445.91         65.7125
446.36        65.85876
446.80        66.03241
447.24        66.28301
447.69        66.62499
448.13        66.29869
448.58        66.59547
449.02        66.46304
449.47        66.33975
449.91        66.25705
450.36         66.2598
450.80        66.30989
451.25         66.3841
451.69        66.39403
452.13        66.34937
452.58        66.32653
453.02        66.32677
453.47        66.29818
453.91        66.23743
454.36         66.1931
454.80        66.14278
455.24        65.97511
455.69        65.69296
456.13         65.4158
456.58         65.2801
457.02        64.83354
457.46        64.89263
457.91        65.08358
458.35        65.39098
458.79        65.29201
459.24        64.82969
459.68        64.08907
460.13        63.31636
460.57        63.12093
461.01        63.68692
461.46        63.37007
461.90        64.16169
462.34        65.07211
462.79        64.66444
463.23        64.73417
463.68        64.83236
464.12        64.72901
464.56        64.37612
465.01        63.54435
465.45        62.53752
465.89        62.27924
466.34        62.64801
466.78        63.01779
467.22        63.29551
467.67        62.61088
468.11        62.61767
468.55        62.54511
468.99        62.79442
469.44        62.71738
469.88        62.32317
470.32        62.00663
470.77        61.83601
471.21        61.75863
471.65        61.77526
472.10        61.89991
472.54         62.0779
472.98        62.18129
473.42        62.16299
473.87        62.20669
474.31         62.2212
474.75        61.79738
475.20        61.12982
475.64        60.98228
476.08        61.33513
476.52        61.36005
476.97        61.00375
477.41        60.95397
477.85         61.3544
478.29        60.70317
478.74        61.53607
479.18        61.52555
479.62        61.43259
480.06        61.34497
480.50        61.26695
480.95        61.20187
481.39        61.14607
481.83        60.79991
482.27         60.6798
482.72        60.91241
483.16        60.62592
483.60        60.66084
484.04        60.69007
484.48        60.98796
484.93        61.27927
485.37        60.80999
485.81        60.19231
486.25        59.71782
486.69        60.63581
487.14        62.01284
487.58        60.60836
488.02        60.85975
488.46        59.86207
488.90        60.20143
489.34        61.37735
489.79        61.85311
490.23        61.22672
490.67        60.53677
491.11        59.98786
491.55         59.9001
491.99        60.21294
492.43        60.24269
492.88        59.97538
493.32        59.97415
493.76        60.21954
494.20        60.36444
494.64        60.37435
495.08        60.31668
495.52         60.2295
495.96        60.22089
496.41        60.26363
496.85        60.26789
497.29        60.13224
497.73        60.01756
498.17        59.27565
498.61        59.34591
499.05         59.7923
499.49        60.01923
499.93        59.71889
500.37        59.64448
500.82        59.76797
501.26        59.84671
501.70        59.85855
502.14        60.03187
502.58         60.0492
503.02        60.15277
503.46          60.241
503.90        60.31507
504.34        60.33683
504.78        60.25575
505.22        60.06097
505.66        59.80753
506.10        59.61333
506.54        59.44406
506.98        59.28132
507.42        59.74632
507.86        60.03507
508.30        59.60193
508.74        59.91342
509.18        59.64854
509.62        59.39879
510.06        59.25999
510.50        59.28615
510.94        59.40411
511.38        59.54894
511.82        59.66462
512.26        59.72224
512.70        59.74868
513.14        59.75128
513.58        59.74419
514.02        59.74468
514.46        59.71078
514.90        59.65566
515.34        59.70414
515.78        59.87914
516.22        59.77169
516.66        60.02095
517.10        60.00309
517.54        59.90792
517.98        59.74525
518.42        59.56836
518.86        59.44875
519.30        59.40399
519.74        59.42198
520.18        59.47581
520.62        59.52156
521.06        59.54716
521.50        59.56863
521.93        59.60089
522.37        59.64771
522.81        59.71575
523.25        59.78846
523.69        59.85661
524.13        59.91329
524.57        59.94981
525.01        59.96118
525.45        59.93879
525.89        59.86913
526.32        59.74889
526.76        59.60826
527.20        59.45157
527.64        59.28988
528.08        59.13663
528.52         58.9943
528.96        58.89873
529.40        58.90192
529.83        59.00325
530.27        59.18842
530.71        59.38769
531.15        59.49599
531.59        59.48825
532.03         59.3896
532.46        59.24833
532.90        59.18649
533.34        59.21905
533.78        59.27418
534.22        59.31277
534.66        59.34919
535.09        59.32648
535.53        59.13339
535.97        58.82014
536.41        58.61614
536.85        58.55162
537.28        58.51152
537.72        58.50359
538.16         58.5844
538.60        58.74187
539.04        58.95536
539.47         59.1517
539.91        59.25689
540.35        59.24051
540.79         59.1253
541.22         58.9665
541.66        58.87592
542.10        58.87396
542.54        58.93108
542.97         58.9904
543.41        58.98939
543.85        58.90432
544.29        58.77148
544.72        58.62339
545.16        58.53211
545.60        58.50512
546.04        58.55557
546.47        58.66219
546.91        58.73256
547.35        58.78138
547.79        58.91937
548.22        59.11068
548.66        59.25769
549.10        59.36405
549.53        59.27489
549.97        59.04916
550.41        58.82249
550.84        58.69434
551.28        58.67601
551.72        58.71223
552.15        58.85225
552.59        59.13615
553.03        58.62569
553.46        59.08482
553.90        59.03369
554.34        58.98814
554.77        58.91175
555.21        58.85501
555.65        58.87312
556.08         58.9482
556.52        59.02668
556.96        59.06765
557.39        59.15965
557.83        59.24773
558.27        59.03521
558.70        58.59791
559.14        58.38892
559.57        58.42155
560.01        58.41829
560.45        58.37636
560.88        58.53883
561.32        58.84743
561.75        58.99772
562.19        58.98082
562.63        58.86239
563.06        58.70362
563.50        58.68517
563.93        58.74389
564.37         58.7355
564.80        58.68385
565.24        58.59823
565.68        58.35437
566.11        58.95275
566.55        58.27613
566.98        58.08032
567.42        57.89697
567.85        57.98634
568.29         58.3396
568.72        58.75856
569.16        59.21161
569.60        59.38758
570.03        59.45222
570.47        59.47241
570.90        59.61988
571.34        58.91756
571.77        59.37572
572.21        59.57787
572.64        59.53976
573.08        59.69061
573.51        58.96511
573.95         58.9633
574.38        59.45905
574.82        59.52404
