SpectraSmart Spectrum 2.9.0.0
--------- Device Information -----------
Spectrum Name :  反射率_0
Saving Time :  2024/04/26 23:24:12
Spectro-Module Model Name : SE2030-DUVN
Spectro-Module Serial Number : OS361AC55029948
Wavelength Start : 200
Wavelength End : 1025
Wavelength Unit : Wavelength(nm)
Spectrum Unit : Reflectance(%)
-----------Spectrum Setting ------------
Integration Time : 20ms
Average : 10
Boxcar : 0
Background removal :  enabled
linearity correction :  enabled
SC :  disabled
Intensity correction :  disabled
DWT denoise :  enabled
savitzky-golay :  disabled
FFT :  disabled
Running average :  disabled
Kalman :  disabled
High pass :  disabled
---------------BEGIN--------------------
Wavelength(nm)             Reflectance(%)
200.29               0
200.75        41.34439
201.21        40.15139
201.67        39.60313
202.13        38.97906
202.58        38.00527
203.04        37.12269
203.50        36.86235
203.96        38.36021
204.42        42.19767
204.88        47.86209
205.34        53.69725
205.80        57.09816
206.26        57.13534
206.72        54.38535
207.18        50.71661
207.64        47.53167
208.10        44.79986
208.55        42.45322
209.01        39.13905
209.47        34.44033
209.93        30.57639
210.39        28.63921
210.85         29.0572
211.31         32.4556
211.77         40.2491
212.23        58.11032
212.69        101.7697
213.14        170.7306
213.60        160.1297
214.06        105.0004
214.52         70.1868
214.98        56.32431
215.44        52.40079
215.90        52.24451
216.36         54.0227
216.81        55.66027
217.27        56.71427
217.73        59.08404
218.19        61.85129
218.65        60.45593
219.11        55.15778
219.57        48.98073
220.02        45.80082
220.48        48.24401
220.94        56.10536
221.40        70.57742
221.86        90.64515
222.32        101.4639
222.77        92.04189
223.23        73.39083
223.69        56.34356
224.15        46.49991
224.61        42.36031
225.06         40.7761
225.52        40.91315
225.98        41.98483
226.44        43.53177
226.90        45.80295
227.36        47.65981
227.81        47.08942
228.27        44.16111
228.73         39.7272
229.19        35.64983
229.65        34.01583
230.10        34.89595
230.56        37.60874
231.02          40.737
231.48        42.00272
231.93        40.96192
232.39        38.70133
232.85        36.54877
233.31         36.2535
233.77        37.96241
234.22        41.03274
234.68        44.37761
235.14        46.41427
235.60        46.70938
236.05        45.79219
236.51        44.34905
236.97        43.81159
237.43        44.81207
237.88        46.94428
238.34        49.84591
238.80        53.27399
239.26        57.26947
239.71        62.66007
240.17        69.03266
240.63        74.95764
241.08        79.28934
241.54        80.89648
242.00        81.41346
242.46        85.21304
242.91        95.63155
243.37        114.6345
243.83        142.9512
244.28        167.3907
244.74        168.4206
245.20        146.2267
245.66        118.9635
246.11        102.9505
246.57        98.83423
247.03        101.5765
247.48        105.5854
247.94        102.2787
248.40        93.03118
248.85        83.39008
249.31        76.58163
249.77        73.54182
250.22        73.47309
250.68        75.13552
251.14        78.56624
251.59        82.88192
252.05        86.71196
252.51        90.56909
252.96        91.71297
253.42        88.45344
253.88        82.06721
254.33        73.76443
254.79        68.37806
255.25        69.88309
255.70        77.38794
256.16          88.839
256.62        98.73193
257.07        98.96175
257.53        91.62505
257.99        81.94188
258.44        73.88454
258.90        70.71236
259.35        70.94685
259.81        73.16149
260.27         75.4108
260.72        75.46046
261.18        73.55448
261.63        70.47659
262.09        67.73764
262.55        66.28419
263.00        65.93237
263.46        66.29842
263.91        66.42805
264.37        65.52764
264.83        63.55416
265.28         60.9517
265.74        58.54676
266.19        56.98531
266.65        56.40834
267.11        56.40202
267.56        56.56605
268.02        56.29984
268.47        55.42253
268.93         54.1854
269.38        52.70631
269.84        51.21934
270.30        49.80871
270.75        48.39666
271.21        47.10256
271.66        46.04652
272.12        45.24235
272.57        44.64225
273.03        44.10675
273.48        43.37966
273.94        42.46381
274.39        41.39959
274.85        40.37302
275.31         39.4956
275.76        38.76707
276.22        38.17567
276.67        37.62843
277.13        37.10215
277.58        36.52546
278.04         35.9443
278.49        35.31879
278.95        34.71428
279.40        34.09169
279.86        33.51605
280.31         32.9179
280.77        32.31319
281.22        31.67478
281.68        31.07991
282.13        30.55848
282.59        30.24028
283.04        30.09868
283.50        30.11201
283.95        30.19079
284.41        30.20864
284.86        30.12559
285.32        30.00174
285.77        29.87176
286.22        29.85646
286.68        29.97277
287.13         30.1355
287.59        30.31442
288.04        30.41579
288.50         30.4407
288.95        30.39732
289.41        30.31532
289.86        30.16007
290.32        29.99292
290.77        29.82801
291.22        29.75647
291.68        29.89404
292.13        30.26031
292.59        30.85286
293.04        31.63617
293.50        32.56348
293.95        33.59925
294.40        34.75759
294.86        36.02145
295.31        37.35611
295.77        38.75758
296.22        40.19785
296.68        41.70848
297.13        43.32957
297.58        45.07335
298.04        46.92904
298.49        48.83131
298.95        50.69852
299.40        52.49462
299.85        54.24415
300.31         56.0141
300.76        57.88258
301.21        59.87391
301.67        61.97652
302.12        64.08482
302.58        66.13468
303.03        68.06078
303.48          69.922
303.94        71.80484
304.39        73.76353
304.84        75.83709
305.30        77.99688
305.75         80.1422
306.20        82.22069
306.66        84.22358
307.11        86.13414
307.57        87.96237
308.02        89.60116
308.47        91.08244
308.93        92.43925
309.38        93.75986
309.83        95.31143
310.29        97.13097
310.74        99.12408
311.19        101.0672
311.65        102.5604
312.10         103.486
312.55        103.9649
313.00        104.2509
313.46        104.7448
313.91        105.5308
314.36        106.5309
314.82        107.5757
315.27        108.4078
315.72        108.9314
316.18        109.2584
316.63        109.4957
317.08        109.8568
317.53        110.3972
317.99        111.0366
318.44        111.6733
318.89        112.1156
319.35        112.3167
319.80          112.35
320.25        112.3406
320.70         112.487
321.16         112.837
321.61        113.3698
322.06        113.9613
322.51        114.4173
322.97        114.6654
323.42        114.7612
323.87        114.8448
324.32        115.1698
324.78        115.7467
325.23        116.5782
325.68        117.3633
326.13         117.624
326.59        117.2623
327.04        116.4651
327.49        115.6209
327.94         115.373
328.39        115.8724
328.85        116.8933
329.30        118.1915
329.75         119.042
330.20        119.2088
330.66        118.8678
331.11        118.3631
331.56         118.167
332.01        118.4355
332.46        118.9956
332.92        119.6245
333.37        120.1331
333.82        120.3715
334.27        120.4759
334.72        120.5242
335.17        120.6112
335.63        120.7859
336.08        121.0789
336.53        121.5339
336.98        122.2841
337.43         123.323
337.88         124.559
338.34        125.8443
338.79        127.0598
339.24         128.052
339.69        128.8472
340.14        129.3113
340.59        129.2629
341.05        128.7714
341.50        127.9332
341.95        127.1301
342.40        126.9368
342.85          127.48
343.30        128.5974
343.75        129.9831
344.20        131.1032
344.66         131.772
345.11         132.115
345.56        132.2325
346.01        132.3038
346.46        132.4162
346.91        132.5208
347.36         132.621
347.81        132.7509
348.26        132.9091
348.72         133.085
349.17        133.3158
349.62        133.6827
350.07        134.1687
350.52         134.759
350.97        135.1974
351.42        135.0851
351.87        134.3797
352.32        133.2155
352.77        132.0314
353.22        131.4702
353.67        131.6484
354.13        132.3805
354.58        133.2286
355.03          133.41
355.48        132.7323
355.93         131.435
356.38        130.0153
356.83        129.2189
357.28        129.1839
357.73        129.6393
358.18        130.1185
358.63         129.883
359.08        128.7589
359.53        127.0251
359.98        125.0853
360.43        123.5108
360.88        122.4528
361.33        121.7427
361.78        121.1636
362.23        120.3823
362.68        119.3247
363.13        118.1311
363.58        116.9724
364.03         116.085
364.48        115.5027
364.93        115.1011
365.38        114.7296
365.83        114.1726
366.28         113.368
366.73        112.3979
367.18        111.3252
367.63        110.2408
368.08        109.1923
368.53         108.162
368.98        107.1897
369.43        106.3356
369.88        105.6057
370.33        104.9909
370.78        104.4326
371.23        103.8292
371.68        103.1473
372.13        102.3974
372.58        101.6215
373.03        100.8913
373.48         100.218
373.93        99.57586
374.38        98.90404
374.83        98.11716
375.28        97.20917
375.72        96.19984
376.17        95.23812
376.62        94.42384
377.07        93.79449
377.52        93.34451
377.97        92.98177
378.42        92.56961
378.87        92.07477
379.32        91.49692
379.77        90.99869
380.22        90.82058
380.67         90.9659
381.11         91.3829
381.56        91.67065
382.01        91.26527
382.46         90.1057
382.91        88.45943
383.36        86.83405
383.81         85.9209
384.26        85.82722
384.71        86.30974
385.15        87.03667
385.60        87.42751
386.05        87.29145
386.50        86.79962
386.95        86.07216
387.40         85.3018
387.85        84.59045
388.29        83.84018
388.74        83.19975
389.19        82.66505
389.64        82.23228
390.09        81.90263
390.54        81.65411
390.98        81.41647
391.43        81.20077
391.88         80.9949
392.33        80.78764
392.78        80.51808
393.23        80.17844
393.67        79.88721
394.12        79.69805
394.57        79.22643
395.02        78.61913
395.47        78.56127
395.91        78.96275
396.36        78.99754
396.81        78.63039
397.26        78.32883
397.71        78.08936
398.15        77.73079
398.60        77.36537
399.05        76.84673
399.50        76.31425
399.95         76.2864
400.39        76.64499
400.84        76.53781
401.29        75.95984
401.74        75.61594
402.18        75.51739
402.63        75.13494
403.08        74.57033
403.53         74.2507
403.97        74.20188
404.42        74.26827
404.87        74.36026
405.32         74.3261
405.76        74.11114
406.21        73.90163
406.66        73.71337
407.11        73.35896
407.55        73.00458
408.00        73.07249
408.45        73.47485
408.90        73.73481
409.34        73.64034
409.79        73.02118
410.24        72.13039
410.68        71.65007
411.13        71.66495
411.58        71.80164
412.03        71.91454
412.47        71.92677
412.92        71.75907
413.37        71.46996
413.81        71.16236
414.26        71.05611
414.71        71.16042
415.15        71.43044
415.60        71.73793
416.05        71.94499
416.49        72.00117
416.94        71.93975
417.39        71.81806
417.83        71.70536
418.28        71.63659
418.73        71.59486
419.17        71.57159
419.62        71.55753
420.07        71.53131
420.51        71.47127
420.96         71.4294
421.41        71.36002
421.85        71.23114
422.30        71.30464
422.74        71.41135
423.19        71.01157
423.64        70.24933
424.08        70.08793
424.53        70.53137
424.98        70.74171
425.42        70.66853
425.87        70.98685
426.31        71.53263
426.76        71.27139
427.21        70.39394
427.65         70.1754
428.10        70.58139
428.54        70.69582
428.99        70.54927
429.44        70.35171
429.88        70.28235
430.33        70.94734
430.77        71.96542
431.22        72.36287
431.66        72.02298
432.11        71.30643
432.56         70.5151
433.00        70.19508
433.45        70.55338
433.89        71.16284
434.34        71.35358
434.78          72.419
435.23        71.62408
435.67        69.57166
436.12        70.13403
436.57        70.23931
437.01        70.90907
437.46        71.15247
437.90        71.00133
438.35        70.06413
438.79        70.32893
439.24        70.23833
439.68        70.30951
440.13        70.72082
440.57        71.38454
441.02        71.36508
441.46        70.80008
441.91        71.50317
442.35        72.90517
442.80        72.53333
443.24        70.77031
443.69        70.57549
444.13        71.86468
444.58        72.34971
445.02        71.95479
445.47        71.97332
445.91          72.436
446.36        72.71952
446.80        72.75985
447.24        73.10772
447.69        73.17178
448.13        72.98646
448.58        72.80169
449.02         72.6532
449.47        72.64943
449.91        72.52442
450.36        72.31694
450.80        72.17042
451.25        72.11977
451.69        72.08539
452.13         72.0778
452.58        72.10257
453.02        72.15379
453.47         72.2299
453.91         72.3091
454.36        72.39124
454.80        72.43106
455.24        72.27103
455.69        71.89574
456.13        71.53439
456.58        71.34518
457.02        70.60352
457.46        70.32386
457.91        70.65993
458.35        71.03279
458.79        70.97313
459.24        70.33933
459.68        69.47227
460.13        68.66974
460.57        68.36216
461.01         68.7142
461.46        68.61124
461.90         69.4481
462.34        69.98229
462.79         69.9883
463.23        70.02689
463.68        69.91281
464.12        69.63004
464.56        69.17844
465.01         68.6705
465.45        68.19264
465.89        67.85728
466.34        67.61314
466.78        67.76627
467.22        68.34419
467.67         67.1307
468.11        67.43257
468.55        67.31232
468.99        67.64133
469.44        67.63718
469.88        67.29405
470.32        66.97609
470.77        66.73975
471.21        66.59017
471.65        66.53677
472.10        66.58193
472.54        66.66673
472.98        66.66862
473.42        66.55044
473.87        66.49006
474.31        66.43377
474.75        66.06065
475.20        65.54647
475.64        65.55522
476.08         66.0254
476.52        66.10383
476.97        65.69786
477.41        65.57727
477.85        65.92292
478.29        65.06578
478.74        65.42007
479.18        65.92809
479.62        65.58491
480.06        65.63898
480.50        65.52647
480.95         65.6801
481.39        66.11135
481.83        65.14377
482.27        65.39428
482.72        65.64355
483.16        65.14252
483.60        65.13866
484.04        65.17702
484.48        65.52332
484.93          65.876
485.37        65.47893
485.81        64.99201
486.25        64.65974
486.69         66.5669
487.14        67.82713
487.58        65.70982
488.02        64.93874
488.46        64.17559
488.90        64.41762
489.34        65.25052
489.79         65.8502
490.23        65.40762
490.67        64.83967
491.11        64.24706
491.55        64.16103
491.99        64.49352
492.43        64.41706
492.88        63.92417
493.32        63.64908
493.76        63.67113
494.20        63.71697
494.64        63.76615
495.08        64.01548
495.52        64.34665
495.96        64.26358
496.41        63.85332
496.85        63.86655
497.29         64.1503
497.73        64.21677
498.17        63.32844
498.61        63.20187
499.05        63.57782
499.49        63.79335
499.93        63.58318
500.37        63.62203
500.82         63.8139
501.26        63.83194
501.70        63.69946
502.14        63.67849
502.58        63.79925
503.02        63.91943
503.46        64.03374
503.90        64.23557
504.34        64.42447
504.78        64.38869
505.22        64.10457
505.66        63.63186
506.10         63.1344
506.54        62.86156
506.98        62.82714
507.42        62.95078
507.86        63.21371
508.30        62.99421
508.74        63.39784
509.18        63.44408
509.62        63.45805
510.06        63.42756
510.50        63.36423
510.94        63.24594
511.38        63.09885
511.82        63.00626
512.26        62.98671
512.70        63.02457
513.14        63.09021
513.58        63.16122
514.02        63.22789
514.46        63.23428
514.90        63.16576
515.34        63.34048
515.78        63.22588
516.22         63.2276
516.66        63.18376
517.10         63.1549
517.54        63.06279
517.98        62.98779
518.42        62.90627
518.86        62.80242
519.30        62.68266
519.74        62.55495
520.18        62.46087
520.62        62.46057
521.06        62.56108
521.50        62.74303
521.93        62.94522
522.37        63.04669
522.81        63.02716
523.25         62.9162
523.69        62.77865
524.13        62.72002
524.57        62.76061
525.01        62.85777
525.45        62.96037
525.89        62.98675
526.32        62.90837
526.76        62.77748
527.20        62.60894
527.64        62.42904
528.08        62.25802
528.52        62.08909
528.96        61.96045
529.40        61.93224
529.83        62.00502
530.27        62.16555
530.71        62.34174
531.15        62.42188
531.59        62.38114
532.03        62.25053
532.46        62.07933
532.90        61.99198
533.34        62.00616
533.78        62.04856
534.22        62.08856
534.66        62.15726
535.09        62.19455
535.53        62.07402
535.97        61.83134
536.41        61.68224
536.85        61.65114
537.28        61.62342
537.72        61.61129
538.16        61.68321
538.60        61.83071
539.04        62.02805
539.47        62.20681
539.91        62.30187
540.35        62.28398
540.79        62.17885
541.22        62.02832
541.66        61.92234
542.10        61.87932
542.54        61.87629
542.97        61.88448
543.41        61.88644
543.85        61.86553
544.29        61.84252
544.72        61.80806
545.16        61.78158
545.60        61.75539
546.04        61.72899
546.47        61.72327
546.91        61.76826
547.35        61.85928
547.79        61.98454
548.22        62.10089
548.66        62.12572
549.10        62.11545
549.53        62.06644
549.97        62.00151
550.41        61.82599
550.84        61.62363
551.28        61.55556
551.72        61.59467
552.15        61.72033
552.59        61.99173
553.03        61.55318
553.46        62.22136
553.90         62.0721
554.34        62.04693
554.77        61.82914
555.21        61.63687
555.65        61.58992
556.08        61.68124
556.52        61.78981
556.96        61.84647
557.39        61.96138
557.83        62.06738
558.27        61.81697
558.70        61.32074
559.14        61.14058
559.57        61.27424
560.01        61.35855
560.45        61.37374
560.88        61.50307
561.32        61.73137
561.75        61.92002
562.19        62.04369
562.63         61.9766
563.06        61.77882
563.50        61.76969
563.93         61.8704
564.37        61.84901
564.80        61.72826
565.24        61.54187
565.68        61.20589
566.11        61.82462
566.55        61.18554
566.98        61.14478
567.42        61.13217
567.85        61.24483
568.29        61.49821
568.72        61.85187
569.16        62.30909
569.60        62.63789
570.03        62.55882
570.47         62.7371
570.90        63.21291
571.34        62.16624
571.77        62.74058
572.21         63.0337
572.64        62.80913
573.08        62.98756
573.51        62.41285
573.95        62.52856
574.38        63.23097
574.82        63.10452
