SpectraSmart Spectrum 2.9.0.0
--------- Device Information -----------
Spectrum Name :  反射率_0
Saving Time :  2024/04/26 23:23:13
Spectro-Module Model Name : SE2030-DUVN
Spectro-Module Serial Number : OS361AC55029948
Wavelength Start : 200
Wavelength End : 1025
Wavelength Unit : Wavelength(nm)
Spectrum Unit : Reflectance(%)
-----------Spectrum Setting ------------
Integration Time : 20ms
Average : 10
Boxcar : 0
Background removal :  enabled
linearity correction :  enabled
SC :  disabled
Intensity correction :  disabled
DWT denoise :  enabled
savitzky-golay :  disabled
FFT :  disabled
Running average :  disabled
Kalman :  disabled
High pass :  disabled
---------------BEGIN--------------------
Wavelength(nm)             Reflectance(%)
200.29               0
200.75        36.36713
201.21         37.7394
201.67        40.26295
202.13        42.93692
202.58        45.59388
203.04        49.28366
203.50        53.75058
203.96        56.84274
204.42        56.88345
204.88         53.4077
205.34        47.78386
205.80        43.75246
206.26        42.54511
206.72        43.19408
207.18        44.24024
207.64        44.01435
208.10        42.27578
208.55         39.5928
209.01        36.04963
209.47        34.75309
209.93        37.19909
210.39        40.90111
210.85        44.72142
211.31         49.5599
211.77        57.39374
212.23        73.36327
212.69        111.3458
213.14         172.647
213.60        165.4659
214.06        118.6506
214.52        87.83424
214.98        73.68405
215.44        67.01367
215.90        62.65289
216.36         60.1348
216.81        59.60686
217.27        61.35353
217.73        66.93571
218.19        74.98756
218.65        76.66157
219.11        69.94861
219.57         60.9322
220.02        55.49097
220.48        57.04141
220.94        65.20303
221.40        80.75833
221.86         103.624
222.32        120.0169
222.77        116.3705
223.23        101.4716
223.69        84.99545
224.15        72.36532
224.61        63.46035
225.06        56.46747
225.52        51.55492
225.98        48.60074
226.44        47.22106
226.90        47.24499
227.36        48.09021
227.81        48.74872
228.27        48.98244
228.73        48.76144
229.19        48.62946
229.65        49.32284
230.10        50.80302
230.56        52.84276
231.02        54.43272
231.48         54.0471
231.93        51.63557
232.39        48.24337
232.85         45.1913
233.31        44.20126
233.77        45.37576
234.22        48.07552
234.68        51.30349
235.14        53.57725
235.60        54.43118
236.05        54.35866
236.51        53.62026
236.97        52.85859
237.43        52.46112
237.88        52.22179
238.34        52.40988
238.80        53.81405
239.26        56.79011
239.71        62.03453
240.17        68.95926
240.63        75.38425
241.08        79.69176
241.54        80.99935
242.00        81.06326
242.46        84.50534
242.91        94.80859
243.37        113.6066
243.83        141.9707
244.28        168.1383
244.74        172.9141
245.20        155.1373
245.66        130.6913
246.11        114.5428
246.57        108.0056
247.03        107.0079
247.48        106.8408
247.94        101.1181
248.40         91.5988
248.85        82.33028
249.31        76.41813
249.77        74.98398
250.22        77.28568
250.68        82.67924
251.14         89.5918
251.59        92.27718
252.05        88.25965
252.51        81.19905
252.96        73.85048
253.42        69.00243
253.88        66.60985
254.33        65.02741
254.79        65.58605
255.25        69.17097
255.70        75.04594
256.16        82.64548
256.62        88.30172
257.07        86.75165
257.53        80.11686
257.99         72.0505
258.44        65.47434
258.90         62.9012
259.35        63.04874
259.81        64.87351
260.27        66.73353
260.72        66.73393
261.18         65.0797
261.63        62.36923
262.09        59.95556
262.55        58.70518
263.00        58.44418
263.46        58.84218
263.91        58.95433
264.37        57.93937
264.83        55.79321
265.28        52.98669
265.74        50.43514
266.19         48.9441
266.65        48.65096
267.11          49.112
267.56        49.78867
268.02        49.84211
268.47         49.0485
268.93        47.73015
269.38        46.17818
269.84        44.88789
270.30        43.98468
270.75        43.27839
271.21        42.71302
271.66        42.16346
272.12        41.57706
272.57        40.98347
273.03        40.33652
273.48        39.53082
273.94        38.61724
274.39        37.60016
274.85         36.6214
275.31        35.74207
275.76         34.9641
276.22        34.31062
276.67         33.7406
277.13        33.28095
277.58         32.8734
278.04        32.53604
278.49        32.18388
278.95        31.81171
279.40        31.35939
279.86        30.89001
280.31        30.37347
280.77        29.87663
281.22        29.37636
281.68        28.92516
282.13        28.49466
282.59        28.12738
283.04        27.79784
283.50        27.52066
283.95        27.29945
284.41        27.15344
284.86         27.0792
285.32        27.08992
285.77        27.13182
286.22        27.19208
286.68        27.25968
287.13         27.2903
287.59        27.32014
288.04        27.36166
288.50        27.43106
288.95        27.49484
289.41         27.5069
289.86        27.33432
290.32        27.01619
290.77        26.60244
291.22          26.249
291.68        26.16595
292.13        26.39405
292.59        26.90182
293.04        27.58893
293.50        28.30632
293.95        29.00339
294.40        29.73191
294.86         30.5608
295.31        31.58744
295.77        32.83377
296.22        34.23379
296.68        35.72795
297.13        37.21796
297.58        38.68593
298.04        40.16842
298.49        41.68875
298.95        43.30022
299.40        45.00226
299.85        46.77346
300.31        48.60651
300.76        50.47384
301.21        52.37035
301.67        54.31722
302.12         56.2682
302.58        58.23536
303.03        60.17635
303.48        62.12085
303.94        64.10204
304.39        66.10657
304.84        68.16217
305.30         70.2695
305.75        72.38543
306.20        74.53635
306.66        76.71622
307.11        78.86324
307.57        80.93632
308.02        82.76535
308.47        84.35838
308.93        85.77779
309.38        87.10389
309.83        88.58096
310.29        90.26526
310.74        92.08184
311.19        93.89173
311.65        95.43232
312.10        96.60474
312.55        97.47115
313.00        98.18661
313.46        99.00539
313.91        99.96827
314.36        101.0318
314.82        102.0503
315.27        102.8075
315.72        103.2389
316.18        103.4559
316.63        103.5921
317.08        103.8989
317.53        104.4451
317.99        105.1483
318.44        105.9104
318.89        106.5373
319.35        106.9633
319.80        107.2442
320.25        107.4547
320.70        107.7199
321.16        108.0692
321.61        108.4979
322.06         108.919
322.51        109.2055
322.97        109.3187
323.42        109.3127
323.87        109.3274
324.32        109.6083
324.78        110.1653
325.23        111.0007
325.68        111.8353
326.13        112.2173
326.59        112.0418
327.04        111.4774
327.49        110.8442
327.94        110.6858
328.39        111.1374
328.85        112.0008
329.30        113.1152
329.75        113.9201
330.20         114.228
330.66        114.1697
331.11        113.9945
331.56        114.0247
332.01        114.3691
332.46        114.8904
332.92        115.4246
333.37        115.8802
333.82        116.1407
334.27        116.3084
334.72        116.4082
335.17        116.4537
335.63        116.4763
336.08        116.5385
336.53        116.7489
336.98        117.3359
337.43        118.3276
337.88        119.6226
338.34        121.0168
338.79        122.2869
339.24        123.2542
339.69        123.9623
340.14         124.368
340.59        124.4389
341.05        124.2532
341.50        123.8379
341.95        123.4203
342.40        123.3463
342.85        123.7025
343.30        124.4133
343.75        125.3163
344.20         126.113
344.66        126.6991
345.11        127.1401
345.56        127.4721
346.01        127.7671
346.46        128.0645
346.91        128.3361
347.36         128.588
347.81        128.8558
348.26        129.1329
348.72        129.3927
349.17        129.6461
349.62        129.9445
350.07        130.2774
350.52         130.656
350.97        130.8895
351.42        130.6745
351.87        130.0009
352.32        128.9888
352.77        128.0224
353.22        127.6635
353.67        127.9984
354.13         128.838
354.58        129.7916
355.03        130.1563
355.48        129.7397
355.93        128.7526
356.38         127.562
356.83        126.7216
357.28        126.3605
357.73        126.2878
358.18        126.2497
358.63        125.8541
359.08         125.003
359.53        123.8537
359.98        122.6019
360.43        121.5059
360.88        120.6286
361.33        119.8862
361.78        119.1571
362.23         118.264
362.68        117.1857
363.13        116.0118
363.58        114.8702
364.03        113.9395
364.48        113.2448
364.93        112.6985
365.38        112.2064
365.83        111.6284
366.28        110.9188
366.73        110.1321
367.18        109.2652
367.63        108.3089
368.08        107.2859
368.53        106.2031
368.98        105.1599
369.43        104.3141
369.88        103.6936
370.33         103.258
370.78        102.8868
371.23        102.3769
371.68        101.6705
372.13        100.8154
372.58        99.91341
373.03        99.13044
373.48        98.50117
373.93        97.96327
374.38        97.41878
374.83        96.72426
375.28        95.85138
375.72        94.84086
376.17        93.84147
376.62        92.95091
377.07        92.21676
377.52        91.63839
377.97         91.1538
378.42        90.67747
378.87        90.18894
379.32        89.67434
379.77          89.271
380.22        89.18071
380.67        89.39219
381.11        89.85782
381.56        90.18033
382.01         89.8003
382.46        88.65852
382.91        87.02275
383.36        85.39321
383.81        84.45233
384.26        84.31194
384.71        84.73604
385.15        85.42529
385.60        85.84959
386.05        85.82534
386.50        85.50468
386.95        84.95641
387.40        84.29685
387.85        83.60658
388.29         82.8007
388.74        82.07126
389.19        81.48233
389.64        81.03728
390.09        80.71511
390.54        80.44669
390.98        80.08797
391.43        79.66057
391.88        79.20802
392.33        78.78008
392.78        78.43462
393.23         78.1797
393.67        77.97021
394.12        77.86077
394.57        77.72331
395.02        77.56393
395.47        77.50935
395.91        77.51058
396.36        77.32705
396.81        76.97634
397.26         76.5911
397.71        76.20376
398.15        75.85368
398.60         75.6503
399.05        75.32326
399.50        74.95657
399.95        75.11483
400.39        75.59833
400.84        75.29696
401.29        74.30391
401.74        73.72659
402.18        73.65165
402.63        73.42459
403.08        73.07925
403.53        72.92341
403.97        72.95357
404.42        73.10271
404.87        73.23782
405.32        73.14102
405.76        72.77044
406.21        72.22418
406.66        71.67864
407.11        71.43642
407.55        71.57792
408.00        71.93015
408.45        72.32136
408.90         72.5396
409.34        72.41991
409.79        71.80528
410.24        70.95017
410.68        70.43876
411.13        70.36528
411.58        70.46741
412.03        70.60583
412.47        70.63113
412.92        70.45771
413.37        70.17725
413.81        69.87579
414.26        69.73579
414.71        69.76603
415.15        69.93235
415.60        70.13876
416.05        70.30585
416.49        70.40263
416.94        70.44504
417.39        70.46271
417.83        70.48763
418.28        70.53214
418.73        70.56889
419.17        70.60059
419.62        70.64103
420.07        70.68034
420.51        70.69923
420.96        70.69075
421.41        70.58086
421.85        70.35093
422.30        70.11875
422.74        69.86972
423.19        69.66286
423.64        69.49529
424.08        69.41084
424.53        69.42886
424.98        69.56068
425.42        69.79933
425.87         70.2237
426.31        70.67606
426.76        70.60153
427.21        70.09878
427.65        69.86638
428.10        69.94987
428.54        69.99186
428.99        70.05154
429.44        70.05413
429.88        70.07594
430.33        70.71813
430.77        71.60705
431.22        71.61111
431.66        71.04431
432.11        70.26676
432.56        69.69148
433.00         69.6192
433.45        70.12268
433.89         70.8436
434.34         71.2044
434.78        71.84917
435.23        71.22036
435.67        69.72456
436.12        69.82047
436.57        69.87647
437.01        70.44985
437.46        70.76479
437.90        70.87434
438.35        69.90685
438.79        70.56486
439.24        70.50199
439.68         70.4696
440.13        70.52619
440.57        70.75916
441.02        70.86522
441.46        70.85381
441.91        71.67065
442.35         72.7906
442.80        72.44509
443.24        70.97974
443.69        70.85165
444.13        71.97385
444.58        72.35308
445.02        71.93978
445.47        71.89031
445.91        72.23441
446.36        72.50251
446.80        72.66057
447.24        72.82842
447.69        72.97327
448.13        73.02005
448.58        72.97921
449.02        72.84188
449.47        72.65897
449.91        72.48895
450.36        72.37907
450.80        72.29305
451.25        72.26494
451.69        72.28583
452.13        72.36103
452.58        72.47824
453.02        72.59386
453.47        72.64541
453.91        72.60664
454.36        72.50253
454.80        72.34669
455.24        72.10036
455.69        71.78531
456.13        71.53799
456.58        71.44519
457.02        70.96488
457.46        70.74316
457.91        70.97427
458.35        71.53463
458.79        71.52811
459.24        70.95091
459.68         70.1866
460.13        69.51938
460.57        69.20638
461.01        69.37381
461.46        69.69175
461.90        69.91514
462.34        70.90121
462.79        70.20821
463.23        70.39119
463.68        70.63907
464.12        70.47681
464.56        69.88599
465.01        69.25873
465.45        68.71525
465.89        68.41083
466.34        68.33505
466.78        68.50896
467.22        68.84158
467.67        68.50262
468.11        68.24468
468.55        68.23161
468.99        68.59007
469.44        68.59579
469.88        68.23567
470.32        67.91013
470.77        67.69742
471.21        67.55803
471.65        67.50587
472.10        67.55365
472.54         67.6436
472.98        67.66819
473.42        67.58958
473.87         67.5394
474.31        67.46841
474.75        67.14645
475.20        66.71425
475.64        66.66164
476.08        66.95038
476.52        66.95162
476.97        66.58868
477.41        66.44442
477.85        66.72555
478.29        66.11366
478.74        66.59605
479.18        67.40626
479.62        66.88953
480.06        66.93452
480.50        66.82014
480.95        66.98755
481.39        67.18336
481.83        66.17701
482.27        66.64957
482.72        66.70456
483.16        66.50486
483.60        66.52607
484.04        66.59447
484.48        66.72524
484.93        66.69775
485.37        66.95104
485.81        65.99272
486.25        66.29445
486.69        68.08858
487.14          68.974
487.58        67.21896
488.02        66.88391
488.46        65.62378
488.90        65.72008
489.34        66.64906
489.79        67.66395
490.23        66.62977
490.67        66.11295
491.11        65.74556
491.55        65.62663
491.99        65.70798
492.43        65.58174
492.88         65.2786
493.32        65.21013
493.76        65.38181
494.20        65.52024
494.64        65.59417
495.08        65.69748
495.52        65.79002
495.96        65.80198
496.41        65.74301
496.85        65.62371
497.29        65.39118
497.73        65.49678
498.17        65.10271
498.61        64.92464
499.05        64.76669
499.49        64.97228
499.93        65.21146
500.37        65.33057
500.82         65.2396
501.26        65.13428
501.70        65.07391
502.14        65.13526
502.58        65.29835
503.02        65.37614
503.46        65.35705
503.90        65.38384
504.34        65.44096
504.78        65.41974
505.22        65.31444
505.66        65.16385
506.10          65.007
506.54        64.89832
506.98        64.85331
507.42        64.85874
507.86        64.88272
508.30        64.87302
508.74        64.81716
509.18        64.73075
509.62        64.64622
510.06        64.61574
510.50        64.64937
510.94        64.72727
511.38        64.81621
511.82        64.86295
512.26        64.85613
512.70        64.81757
513.14        64.77087
513.58        64.75468
514.02        64.77939
514.46        64.82297
514.90        64.88332
515.34        64.96036
515.78        65.04093
516.22        65.11996
516.66        65.15868
517.10        65.09413
517.54        64.92412
517.98        64.68237
518.42        64.42222
518.86        64.22894
519.30        64.13165
519.74        64.10629
520.18         64.1496
520.62        64.25101
521.06        64.39452
521.50        64.58243
521.93        64.76502
522.37        64.84042
522.81        64.79729
523.25        64.65372
523.69        64.48317
524.13        64.40807
524.57        64.45032
525.01        64.56722
525.45        64.68939
525.89        64.70196
526.32        64.57282
526.76        64.36871
527.20        64.13139
527.64        63.92829
528.08        63.78918
528.52        63.69367
528.96        63.66072
529.40        63.72049
529.83        63.86303
530.27        64.08164
530.71        64.30798
531.15        64.43832
531.59        64.44618
532.03        64.35061
532.46        64.19672
532.90        64.10722
533.34        64.09872
533.78        64.10369
534.22        64.08347
534.66        64.05728
535.09        63.96852
535.53        63.69693
535.97        63.31394
536.41        63.09196
536.85        63.06491
537.28        63.10103
537.72        63.17607
538.16        63.29862
538.60        63.44563
539.04         63.6073
539.47        63.73368
539.91        63.82419
540.35        63.86457
540.79        63.79741
541.22        63.63719
541.66        63.75356
542.10        63.64505
542.54        63.70644
542.97         63.7477
543.41        63.74734
543.85        63.68534
544.29        63.59506
544.72        63.49951
545.16         63.4409
545.60        63.41772
546.04        63.46697
546.47        63.57983
546.91        63.62592
547.35        63.63972
547.79        63.86525
548.22        64.21384
548.66        64.32417
549.10         64.2425
549.53        64.11613
549.97        63.99813
550.41        63.77006
550.84        63.52487
551.28        63.45745
551.72        63.53259
552.15        63.66343
552.59          63.894
553.03        63.61038
553.46        64.13742
553.90        64.14733
554.34         64.0209
554.77        63.84105
555.21         63.7195
555.65         63.5539
556.08        63.74181
556.52        63.89025
556.96        64.02377
557.39        64.16136
557.83        64.22773
558.27        63.89868
558.70        63.30745
559.14        63.05453
559.57        63.14507
560.01        63.21942
560.45         63.2415
560.88        63.32977
561.32         63.4863
561.75        63.67949
562.19        63.87243
562.63        63.82526
563.06        63.60003
563.50        63.60055
563.93        63.74943
564.37        63.76909
564.80        63.68122
565.24        63.53834
565.68        63.23656
566.11        63.88592
566.55        63.19905
566.98        63.10242
567.42        63.03525
567.85        63.15286
568.29        63.48121
568.72        63.94484
569.16        64.51184
569.60        64.96867
570.03         64.8257
570.47        64.99924
570.90        65.52473
571.34         64.3154
571.77        64.98795
572.21        65.46296
572.64        65.18736
573.08        65.41943
573.51        64.77184
573.95        64.79191
574.38        65.29893
574.82        65.28987
