SpectraSmart Spectrum 2.9.0.0
--------- Device Information -----------
Spectrum Name :  反射率_0
Saving Time :  2024/04/26 23:17:44
Spectro-Module Model Name : SE2030-DUVN
Spectro-Module Serial Number : OS361AC55029948
Wavelength Start : 200
Wavelength End : 1025
Wavelength Unit : Wavelength(nm)
Spectrum Unit : Reflectance(%)
-----------Spectrum Setting ------------
Integration Time : 20ms
Average : 10
Boxcar : 0
Background removal :  enabled
linearity correction :  enabled
SC :  disabled
Intensity correction :  disabled
DWT denoise :  enabled
savitzky-golay :  disabled
FFT :  disabled
Running average :  disabled
Kalman :  disabled
High pass :  disabled
---------------BEGIN--------------------
Wavelength(nm)             Reflectance(%)
200.29               0
200.75        55.29209
201.21        55.38956
201.67        55.57338
202.13        55.81524
202.58        56.05419
203.04         56.4472
203.50        57.37223
203.96        59.31707
204.42         62.3346
204.88         66.3703
205.34          69.394
205.80         68.3544
206.26        63.30176
206.72         55.9229
207.18         49.6218
207.64         46.9996
208.10        48.04604
208.55        53.08484
209.01        60.48962
209.47        62.81644
209.93         57.3897
210.39        49.58906
210.85        44.36647
211.31        44.15311
211.77        49.53692
212.23        64.44905
212.69        103.1295
213.14        167.6027
213.60        162.5893
214.06        115.5151
214.52        84.34489
214.98         70.6418
215.44        65.00304
215.90        61.91067
216.36         60.1459
216.81        58.61166
217.27        57.22399
217.73        57.38936
218.19        58.87539
218.65        59.37868
219.11         58.4909
219.57         56.7099
220.02        56.95223
220.48        62.58855
220.94        74.32341
221.40        94.32353
221.86        121.2975
222.32        135.6178
222.77        122.8265
223.23        97.43958
223.69        74.67179
224.15          62.506
224.61        58.60959
225.06        58.48312
225.52        60.24994
225.98        61.96309
226.44        63.17822
226.90        64.66886
227.36        65.85867
227.81        65.57537
228.27        63.96882
228.73        61.29662
229.19         58.9496
229.65        58.62663
230.10        60.30091
230.56        63.43384
231.02        66.56795
231.48        67.37137
231.93         65.4962
232.39        62.26941
232.85        59.09203
233.31        57.79399
233.77        58.56918
234.22        60.74486
234.68         63.4718
235.14        65.54447
235.60        66.55709
236.05        66.94223
236.51        66.85194
236.97        66.69618
237.43        66.69641
237.88        66.68794
238.34        66.75792
238.80        67.44398
239.26        68.98592
239.71         71.9439
240.17        75.85683
240.63         79.6182
241.08        82.49287
241.54        83.83154
242.00         84.9836
242.46        89.18422
242.91        99.19077
243.37        116.4988
243.83        142.1309
244.28        165.8735
244.74         170.439
245.20        154.2432
245.66        131.2691
246.11        114.7951
246.57        106.0458
247.03        101.3977
247.48        97.56473
247.94        90.74702
248.40        82.69515
248.85        76.00375
249.31        72.05318
249.77        70.77396
250.22        71.50718
250.68        73.74866
251.14        77.24261
251.59        80.35062
252.05        81.93278
252.51        82.98785
252.96        82.61461
253.42        80.69435
253.88         77.8437
254.33        74.12202
254.79         72.6573
255.25        75.94094
255.70        83.27505
256.16        93.39278
256.62        101.8525
257.07        102.0251
257.53        95.88058
257.99        87.72136
258.44        80.86262
258.90        78.23924
259.35        78.49712
259.81        80.53262
260.27        82.63133
260.72        82.83353
261.18        81.37145
261.63        78.78144
262.09        76.48084
262.55        75.27884
263.00        74.97873
263.46        75.31566
263.91        75.29683
264.37        74.13223
264.83        71.80958
265.28        68.79299
265.74        66.05572
266.19        64.38853
266.65        63.95307
267.11        64.29024
267.56        64.85278
268.02        64.80019
268.47         63.8996
268.93        62.47625
269.38        60.81634
269.84         59.4281
270.30        58.42508
270.75        57.60311
271.21        56.89394
271.66        56.13412
272.12        55.27616
272.57        54.36652
273.03        53.38419
273.48        52.25636
273.94        51.06559
274.39         49.7943
274.85        48.62175
275.31        47.62242
275.76        46.77732
276.22        46.10958
276.67        45.49292
277.13        44.87387
277.58        44.16195
278.04        43.40515
278.49        42.59737
278.95        41.87774
279.40        41.20806
279.86        40.65168
280.31         40.0512
280.77        39.32297
281.22        38.42604
281.68        37.48574
282.13        36.64334
282.59        36.20373
283.04        36.14198
283.50        36.37896
283.95        36.66813
284.41        36.63967
284.86        36.21697
285.32         35.5733
285.77        34.90686
286.22         34.5747
286.68        34.63573
287.13         34.9115
287.59        35.28152
288.04        35.50637
288.50        35.54477
288.95        35.45123
289.41        35.26834
289.86        34.96883
290.32        34.62944
290.77        34.24198
291.22        33.94659
291.68        33.93461
292.13        34.23438
292.59        34.83937
293.04        35.62937
293.50        36.42231
293.95        37.16375
294.40        37.90853
294.86        38.77794
295.31        39.95157
295.77        41.46114
296.22         43.2074
296.68        45.05141
297.13        46.76469
297.58        48.30935
298.04        49.76942
298.49        51.24651
298.95         52.9243
299.40        54.82955
299.85        56.89205
300.31           59.06
300.76        61.22783
301.21        63.36984
301.67        65.54389
302.12        67.68752
302.58        69.80357
303.03        71.84868
303.48        73.85001
303.94        75.91228
304.39          78.118
304.84         80.5076
305.30        83.05621
305.75        85.60414
306.20        88.00785
306.66        90.24809
307.11        92.32959
307.57        94.34823
308.02        96.32099
308.47        98.29698
308.93        100.2597
309.38        102.1961
309.83        104.2339
310.29        106.3806
310.74        108.5852
311.19        110.6956
311.65        112.4229
312.10        113.6744
312.55        114.5302
313.00        115.1966
313.46        116.0104
313.91        117.0404
314.36        118.2388
314.82        119.4637
315.27        120.4991
315.72        121.2555
316.18        121.8277
316.63        122.2973
317.08         122.852
317.53        123.5389
317.99        124.2811
318.44        124.9904
318.89        125.4931
319.35         125.746
319.80        125.8203
320.25        125.8241
320.70        125.9286
321.16        126.1835
321.61        126.5927
322.06        127.0676
322.51        127.4696
322.97        127.7417
323.42        127.9252
323.87        128.1433
324.32        128.6186
324.78        129.3277
325.23        130.3148
325.68        131.2639
326.13        131.5559
326.59        131.0587
327.04          130.46
327.49        129.3392
327.94        129.0541
328.39         129.528
328.85        130.5437
329.30        131.8759
329.75        132.8149
330.20        133.1256
330.66        132.9571
331.11        132.6296
331.56        132.5653
332.01        132.9048
332.46        133.4855
332.92        134.0714
333.37        134.4809
333.82        134.5709
334.27         134.483
334.72        134.3534
335.17        134.3705
335.63         134.599
336.08        135.0523
336.53        135.6975
336.98        136.5384
337.43        137.5331
337.88        138.6252
338.34        139.7181
338.79        140.8041
339.24         141.756
339.69         142.559
340.14        143.0604
340.59        143.0466
341.05         142.577
341.50        141.7769
341.95        140.9937
342.40        140.7439
342.85        141.1543
343.30        142.0678
343.75        143.2883
344.20        144.4648
344.66        145.4382
345.11        146.2787
345.56        146.8995
346.01         147.185
346.46         147.165
346.91        146.8796
347.36        146.5336
347.81        146.4815
348.26        146.7842
348.72        147.3135
349.17        147.9248
349.62        148.4177
350.07         148.703
350.52        148.8732
350.97        148.7827
351.42        148.2073
351.87         147.181
352.32        145.7963
352.77        144.4839
353.22        143.8735
353.67        144.0609
354.13        144.8609
354.58        145.8115
355.03        146.0758
355.48        145.4343
355.93        144.1236
356.38        142.6291
356.83        141.6884
357.28        141.4478
357.73        141.6464
358.18        141.8566
358.63        141.4066
359.08        140.1461
359.53        138.3416
359.98        136.3757
360.43        134.7819
360.88        133.6909
361.33        132.9341
361.78        132.2858
362.23        131.4014
362.68         130.205
363.13        128.8401
363.58        127.4754
364.03        126.3463
364.48        125.4939
364.93        124.7997
365.38        124.1506
365.83        123.3882
366.28        122.4661
366.73        121.4577
367.18        120.3782
367.63        119.2392
368.08        118.0686
368.53        116.8643
368.98        115.7187
369.43        114.7787
369.88        114.0656
370.33        113.5422
370.78        113.0758
371.23        112.4458
371.68        111.5909
372.13        110.5567
372.58        109.4735
373.03        108.5536
373.48         107.839
373.93        107.2594
374.38        106.6676
374.83        105.8404
375.28        104.7423
375.72         103.447
376.17        102.1808
376.62        101.1465
377.07         100.411
377.52        99.93453
377.97        99.59216
378.42        99.19881
378.87        98.69843
379.32        98.09834
379.77        97.57101
380.22         97.3681
380.67        97.49432
381.11        97.89779
381.56        98.14263
382.01        97.62231
382.46         96.2793
382.91        94.40219
383.36         92.5733
383.81        91.58516
384.26        91.55223
384.71        92.19759
385.15        93.09755
385.60        93.51375
386.05        93.22301
386.50        92.45379
386.95        91.41863
387.40        90.45545
387.85        89.69782
388.29         88.9848
388.74         88.4229
389.19        87.93788
389.64        87.50375
390.09        87.15084
390.54         86.8434
390.98        86.48549
391.43         86.1057
391.88         85.7058
392.33        85.33553
392.78        85.02895
393.23        84.78188
393.67        84.65388
394.12          84.644
394.57        84.30859
395.02        83.75605
395.47         83.6302
395.91         83.8687
396.36        83.76208
396.81        83.30294
397.26        82.90063
397.71        82.58318
398.15        82.21596
398.60        81.90604
399.05        81.53349
399.50         81.1646
399.95        81.09687
400.39        81.24821
400.84        81.06152
401.29        80.53145
401.74        80.11393
402.18        79.82275
402.63         79.2907
403.08        78.65924
403.53        78.32267
403.97        78.31494
404.42        78.49976
404.87        78.72321
405.32         78.7585
405.76        78.54176
406.21        78.17847
406.66        77.77666
407.11        77.55468
407.55        77.58665
408.00        77.65604
408.45        77.72276
408.90        77.94654
409.34        78.15112
409.79        77.81313
410.24        77.08302
410.68        76.63414
411.13        76.53358
411.58        76.42029
412.03        76.24445
412.47        76.09925
412.92        75.95621
413.37        75.83031
413.81        75.73482
414.26        75.75926
414.71        75.88248
415.15        76.10532
415.60           76.35
416.05        76.56842
416.49        76.73781
416.94        76.85553
417.39         76.9361
417.83         76.9894
418.28        77.03356
418.73        77.06795
419.17        77.10967
419.62        77.19106
420.07        77.29637
420.51        77.37955
420.96        77.46441
421.41        77.46999
421.85        77.36049
422.30        77.39614
422.74        77.42573
423.19        77.02032
423.64        76.29197
424.08        76.01147
424.53        76.25311
424.98        76.44648
425.42        76.56219
425.87        77.20219
426.31        78.07081
426.76        77.82667
427.21        76.69407
427.65        76.33983
428.10        76.78672
428.54        76.91917
428.99        76.79748
429.44        76.72891
429.88        76.86123
430.33        77.79509
430.77        79.06509
431.22        79.47244
431.66          78.973
432.11        78.32236
432.56         77.8121
433.00        77.65893
433.45        78.03857
433.89        78.74435
434.34        79.01387
434.78        80.39255
435.23        78.73514
435.67        77.19936
436.12        77.61693
436.57        77.94492
437.01        78.73902
437.46        79.01108
437.90        78.73411
438.35        78.50143
438.79        78.43242
439.24         78.4733
439.68        78.60152
440.13        78.94804
440.57        79.46114
441.02        79.52898
441.46        79.20625
441.91        79.78673
442.35        80.81447
442.80        80.34924
443.24        78.79546
443.69         78.8885
444.13        80.43092
444.58        81.04659
445.02        80.63121
445.47        80.48254
445.91        80.70367
446.36        80.91012
446.80         81.0949
447.24        81.35152
447.69        81.63192
448.13        81.73013
448.58        81.83489
449.02         81.7954
449.47        81.70147
449.91        81.57138
450.36        81.45387
450.80        81.31213
451.25        81.22684
451.69        81.26206
452.13        81.43626
452.58        81.71579
453.02         81.9958
453.47        82.11414
453.91        82.02133
454.36        81.77969
454.80         81.4752
455.24        81.13519
455.69        80.79929
456.13        80.67005
456.58        80.80469
457.02        80.16212
457.46        80.01984
457.91          80.245
458.35        80.87115
458.79        80.86565
459.24        80.27918
459.68        79.41742
460.13        78.57849
460.57        78.40242
461.01        79.11086
461.46        78.60011
461.90        79.83599
462.34        80.50111
462.79         80.1119
463.23        80.11753
463.68        80.36475
464.12        80.23357
464.56         79.7315
465.01        78.88767
465.45        77.94957
465.89        77.71851
466.34         78.0687
466.78        78.35223
467.22        78.50456
467.67        77.95753
468.11        78.03104
468.55        78.05305
468.99        78.32167
469.44        78.30788
469.88        78.01591
470.32         77.7746
470.77        77.62824
471.21        77.51291
471.65        77.42506
472.10        77.38515
472.54         77.3919
472.98        77.38333
473.42        77.32724
473.87        77.45977
474.31        77.61359
474.75        77.12695
475.20        76.25228
475.64        76.09673
476.08        76.61256
476.52        76.70564
476.97        76.31961
477.41        76.22723
477.85        76.53181
478.29        76.18034
478.74        76.55399
479.18        76.73392
479.62        76.67278
480.06        76.66838
480.50        76.55022
480.95        76.52784
481.39        76.62389
481.83        76.24424
482.27        75.91212
482.72        76.78085
483.16        76.11346
483.60        76.26995
484.04        76.40385
484.48        76.59509
484.93        76.52369
485.37          76.681
485.81        75.94399
486.25        75.61508
486.69        76.51616
487.14        78.42017
487.58        76.43781
488.02        76.84227
488.46        75.57768
488.90        75.47854
489.34        76.54163
489.79        77.93185
490.23        76.92499
490.67        76.33181
491.11        75.65151
491.55        75.46362
491.99        75.69856
492.43        75.57576
492.88        75.11774
493.32        74.95029
493.76         75.0957
494.20        75.19155
494.64        75.20487
495.08        75.29237
495.52        75.40344
495.96        75.34869
496.41        75.16492
496.85         75.1109
497.29        75.08934
497.73        75.21855
498.17        74.57315
498.61        74.56052
499.05         74.8478
499.49        74.95482
499.93        74.63214
500.37        74.75017
500.82        75.16026
501.26        75.17847
501.70        74.86762
502.14        74.91576
502.58        75.30469
503.02        75.49771
503.46         75.4684
503.90        75.51052
504.34        75.58841
504.78        75.50275
505.22        75.23875
505.66        74.90765
506.10         74.6441
506.54        74.42474
506.98        74.23679
507.42        74.70997
507.86        75.06709
508.30        74.65414
508.74        75.16609
509.18        75.07543
509.62        74.97717
510.06        74.85641
510.50        74.75267
510.94        74.62833
511.38        74.49647
511.82        74.43475
512.26        74.45268
512.70         74.5426
513.14        74.67085
513.58        74.77409
514.02        74.83244
514.46        74.85463
514.90        74.86524
515.34         74.9094
515.78        74.98994
516.22        75.08076
516.66        75.14491
517.10        75.12679
517.54        75.01947
517.98        74.85649
518.42        74.66698
518.86        74.49431
519.30         74.3615
519.74        74.25883
520.18        74.21271
520.62        74.26003
521.06        74.39886
521.50        74.61966
521.93        74.85857
522.37        74.98531
522.81        74.97991
523.25         74.8688
523.69        74.72921
524.13        74.68971
524.57        74.77251
525.01        74.92648
525.45        75.08031
525.89        75.11882
526.32        75.00652
526.76        74.81388
527.20        74.57446
527.64        74.34354
528.08        74.15262
528.52        73.98831
528.96        73.88786
529.40        73.90919
529.83        74.04734
530.27        74.28757
530.71        74.54502
531.15        74.69031
531.59         74.6888
532.03        74.56686
532.46        74.37512
532.90        74.25141
533.34        74.21767
533.78        74.20034
534.22        74.16238
534.66         74.1376
535.09        74.06399
535.53        73.79829
535.97        73.42182
536.41         73.2486
536.85        73.31229
537.28         73.4537
537.72        73.63223
538.16        73.83935
538.60        74.03987
539.04        74.22782
539.47        74.35704
539.91        74.40907
540.35        74.36706
540.79        74.24221
541.22        74.07759
541.66        73.96988
542.10        73.93788
542.54        73.96429
542.97        74.00364
543.41        74.02355
543.85        74.00134
544.29        73.93401
544.72        73.83861
545.16        73.83889
545.60        73.90581
546.04        73.90697
546.47        73.84918
546.91        73.85353
547.35        73.91924
547.79        73.96234
548.22        73.98284
548.66        74.02776
549.10         74.1554
549.53        74.24533
549.97        74.29258
550.41        74.16556
550.84        73.92838
551.28        73.85118
551.72         73.9323
552.15        73.85181
552.59         74.0519
553.03        73.76192
553.46        74.19716
553.90        74.24188
554.34         74.2087
554.77        74.13506
555.21        74.07136
555.65        74.05631
556.08         74.0788
556.52        74.11792
556.96         74.1311
557.39        74.14938
557.83        74.16045
558.27        73.98868
558.70        73.68254
559.14        73.59536
559.57        73.69991
560.01        73.65752
560.45        73.51019
560.88        73.68952
561.32        74.12611
561.75          74.245
562.19        74.07996
562.63        73.99473
563.06         74.0325
563.50        74.09714
563.93        74.11534
564.37        74.16019
564.80        74.32887
565.24        74.13487
565.68        73.54826
566.11        74.22331
566.55        73.51476
566.98        73.48559
567.42        73.43701
567.85        73.49857
568.29        73.82309
568.72        74.15837
569.16        74.51205
569.60        75.00076
570.03        74.78136
570.47        74.95189
570.90        75.10837
571.34        74.49392
571.77        75.02077
572.21        75.40602
572.64        74.96332
573.08        75.83265
573.51        74.83434
573.95        74.72285
574.38        74.85871
574.82        75.13964
