SpectraSmart Spectrum 2.9.0.0
--------- Device Information -----------
Spectrum Name :  反射率_0
Saving Time :  2024/04/26 23:19:38
Spectro-Module Model Name : SE2030-DUVN
Spectro-Module Serial Number : OS361AC55029948
Wavelength Start : 200
Wavelength End : 1025
Wavelength Unit : Wavelength(nm)
Spectrum Unit : Reflectance(%)
-----------Spectrum Setting ------------
Integration Time : 20ms
Average : 10
Boxcar : 0
Background removal :  enabled
linearity correction :  enabled
SC :  disabled
Intensity correction :  disabled
DWT denoise :  enabled
savitzky-golay :  disabled
FFT :  disabled
Running average :  disabled
Kalman :  disabled
High pass :  disabled
---------------BEGIN--------------------
Wavelength(nm)             Reflectance(%)
200.29               0
200.75        55.20306
201.21        51.34244
201.67        48.47682
202.13        46.33191
202.58        44.51236
203.04        43.28054
203.50        42.83505
203.96        43.52645
204.42        45.70936
204.88        49.26745
205.34        53.67342
205.80        58.03829
206.26        61.32938
206.72        62.70405
207.18        62.88198
207.64        62.89902
208.10        63.03426
208.55        64.06371
209.01        63.85698
209.47        58.46978
209.93        49.99462
210.39        42.85228
210.85        39.57504
211.31        41.16831
211.77        48.42904
212.23        66.53696
212.69        113.3769
213.14        195.0754
213.60        196.8009
214.06        143.3864
214.52        104.3372
214.98        83.19875
215.44        69.61188
215.90        57.05408
216.36        46.91672
216.81        42.97252
217.27          46.772
217.73        60.19121
218.19        80.96119
218.65         89.9987
219.11        79.66456
219.57        62.50532
220.02        50.46331
220.48        49.33113
220.94        57.97277
221.40        76.25672
221.86        103.8435
222.32        123.6112
222.77        119.1337
223.23        101.6586
223.69        82.49822
224.15        67.82983
224.61        57.60406
225.06        49.59848
225.52        44.38753
225.98        42.50241
226.44        43.36012
226.90        46.46087
227.36        50.30015
227.81        52.18569
228.27        51.60672
228.73        49.30964
229.19        46.82709
229.65        45.97815
230.10        46.86224
230.56        48.86846
231.02        50.73111
231.48        50.53765
231.93        48.10804
232.39        44.63816
232.85        41.49524
233.31        40.41566
233.77        41.51444
234.22        44.12573
234.68        47.22987
235.14        49.34216
235.60        50.00233
236.05        49.69509
236.51        48.79283
236.97        48.12363
237.43        48.13923
237.88        48.61472
238.34         49.6124
238.80        51.58277
239.26        54.77924
239.71        59.86623
240.17          66.512
240.63        73.25197
241.08        78.88099
241.54        82.54698
242.00        85.27251
242.46        90.29829
242.91         100.521
243.37        117.0736
243.83        141.5494
244.28        166.4163
244.74         176.116
245.20        167.4446
245.66        150.7624
246.11        137.2327
246.57         128.619
247.03        122.0665
247.48         114.601
247.94        103.7184
248.40        92.48444
248.85        83.53561
249.31        77.96574
249.77        75.04996
250.22        73.80225
250.68        73.67413
251.14        74.64127
251.59        76.40473
252.05        78.59203
252.51        81.22008
252.96        82.63785
253.42        82.15834
253.88        80.07357
254.33        76.49697
254.79        74.23936
255.25        75.27666
255.70         79.1544
256.16        85.14897
256.62        89.78735
257.07        88.18257
257.53        82.25009
257.99        75.15332
258.44        69.63494
258.90        68.22535
259.35        69.51847
259.81        72.40935
260.27        74.92784
260.72        74.72968
261.18        72.20251
261.63        68.32933
262.09        64.81184
262.55        62.80074
263.00        62.14516
263.46        62.37264
263.91        62.56386
264.37         61.9512
264.83        60.41942
265.28        58.32827
265.74         56.3613
266.19          54.992
266.65        54.34985
267.11        54.11808
267.56        53.93781
268.02        53.28287
268.47        52.04375
268.93         50.4623
269.38        48.80812
269.84        47.53632
270.30        46.72496
270.75        46.19305
271.21        45.79263
271.66        45.24182
272.12        44.46395
272.57        43.52995
273.03        42.48342
273.48        41.37725
273.94        40.31872
274.39        39.26909
274.85        38.34474
275.31        37.56269
275.76         36.8964
276.22        36.37116
276.67        35.91576
277.13        35.52307
277.58        35.11217
278.04        34.69143
278.49        34.18641
278.95        33.61725
279.40        32.94435
279.86         32.2658
280.31         31.5287
280.77        30.76666
281.22         29.9761
281.68        29.23187
282.13        28.61217
282.59        28.30793
283.04        28.28785
283.50         28.4973
283.95        28.76998
284.41        28.85027
284.86        28.67522
285.32         28.3588
285.77        28.00013
286.22        27.80692
286.68        27.82394
287.13        27.94155
287.59        28.13354
288.04        28.31551
288.50        28.47196
288.95        28.60075
289.41        28.68279
289.86        28.61482
290.32        28.44049
290.77        28.18929
291.22        27.97995
291.68        27.97631
292.13        28.21005
292.59         28.6601
293.04        29.27826
293.50        29.99882
293.95        30.78256
294.40        31.65621
294.86        32.61082
295.31        33.61935
295.77        34.68824
296.22        35.80296
296.68        36.99847
297.13        38.31959
297.58        39.78223
298.04        41.37196
298.49         43.0463
298.95        44.75755
299.40        46.46427
299.85        48.16605
300.31        49.87365
300.76        51.58474
301.21        53.31108
301.67        55.07823
302.12        56.82752
302.58        58.55788
303.03        60.23598
303.48        61.90033
303.94        63.65131
304.39         65.5708
304.84        67.68722
305.30        69.96462
305.75        72.24537
306.20        74.37844
306.66        76.33674
307.11        78.13136
307.57        79.84422
308.02        81.49523
308.47        83.13245
308.93        84.74413
309.38         86.3419
309.83        88.06536
310.29        89.93311
310.74        91.90907
311.19        93.83852
311.65        95.42937
312.10        96.59271
312.55        97.39822
313.00        98.07536
313.46        98.99834
313.91        100.2295
314.36        101.6928
314.82        103.1618
315.27        104.2785
315.72        104.9322
316.18        105.2678
316.63        105.4716
317.08        105.8876
317.53        106.6047
317.99        107.4989
318.44        108.4354
318.89        109.1626
319.35         109.602
319.80        109.8481
320.25        109.9882
320.70         110.159
321.16        110.4094
321.61        110.7355
322.06        111.1031
322.51        111.4717
322.97         111.807
323.42        112.1253
323.87        112.4757
324.32        112.9586
324.78        113.5396
325.23        114.2591
325.68        114.8819
326.13        115.0449
326.59        114.6902
327.04        113.9736
327.49        113.2295
327.94        113.0184
328.39        113.4739
328.85        114.3991
329.30        115.6147
329.75        116.5104
330.20        116.8746
330.66        116.8388
331.11        116.6511
331.56        116.6377
332.01        116.9161
332.46         117.354
332.92        117.8017
333.37        118.1973
333.82        118.4381
334.27         118.625
334.72        118.7967
335.17        118.9824
335.63        119.2068
336.08        119.5212
336.53        119.9839
336.98        120.7467
337.43        121.8095
337.88        123.0716
338.34        124.3713
338.79        125.5698
339.24        126.5142
339.69        127.2441
340.14        127.6553
340.59        127.6111
341.05        127.1886
341.50        126.4662
341.95        125.7972
342.40        125.7144
342.85        126.3286
343.30        127.4852
343.75        128.8847
344.20        130.0024
344.66        130.6631
345.11        131.0004
345.56         131.113
346.01        131.1781
346.46        131.2867
346.91         131.384
347.36        131.5081
347.81        131.7484
348.26        132.0946
348.72        132.5028
349.17        132.9249
349.62        133.3071
350.07        133.6129
350.52        133.8891
350.97        133.9616
351.42        133.5645
351.87        132.7133
352.32        131.5158
352.77        130.4154
353.22        130.0596
353.67        130.5429
354.13        131.6642
354.58        132.9223
355.03        133.4202
355.48        132.9255
355.93        131.7021
356.38        130.2697
356.83         129.421
357.28        129.3243
357.73        129.7023
358.18        130.1392
358.63        129.9763
359.08        129.0474
359.53         127.606
359.98        125.9773
360.43        124.6107
360.88        123.6274
361.33        122.8867
361.78        122.2208
362.23        121.3821
362.68        120.3197
363.13         119.146
363.58        118.0028
364.03        117.0794
364.48        116.4067
364.93        115.8974
365.38        115.4253
365.83        114.8075
366.28         113.996
366.73         113.051
367.18         112.057
367.63        111.1402
368.08        110.3357
368.53        109.6059
368.98        108.9031
369.43        108.1483
369.88        107.3268
370.33          106.48
370.78        105.6516
371.23        104.9161
371.68        104.2938
372.13        103.7411
372.58        103.2466
373.03        102.7929
373.48        102.3462
373.93        101.8989
374.38        101.3631
374.83        100.6103
375.28        99.63593
375.72        98.47449
376.17        97.32381
376.62        96.36088
377.07        95.64799
377.52        95.16495
377.97         94.8154
378.42        94.44878
378.87         94.0184
379.32        93.52511
379.77        93.10603
380.22        92.96303
380.67        93.09293
381.11        93.45267
381.56        93.66397
382.01        93.20924
382.46        92.04694
382.91        90.43785
383.36        88.87501
383.81        88.03036
384.26         88.0022
384.71        88.54287
385.15        89.33665
385.60        89.82407
386.05        89.81255
386.50        89.46963
386.95        88.85168
387.40        88.05986
387.85         87.1937
388.29        86.18643
388.74        85.30833
389.19        84.71716
389.64        84.42732
390.09         84.3918
390.54        84.44939
390.98        84.29831
391.43        83.91225
391.88        83.36703
392.33        82.81068
392.78        82.42294
393.23        82.23103
393.67        82.21667
394.12        82.32072
394.57        82.08769
395.02        81.57736
395.47        81.32182
395.91        81.34035
396.36        81.18308
396.81        80.88156
397.26        80.72244
397.71         80.6395
398.15        80.43222
398.60        80.18758
399.05         79.7226
399.50        79.20709
399.95        79.28592
400.39        79.80632
400.84        79.71044
401.29        78.99294
401.74        78.52236
402.18        78.34357
402.63        77.89674
403.08        77.31025
403.53        77.01929
403.97        77.05137
404.42        77.28388
404.87        77.53878
405.32        77.51851
405.76        77.15907
406.21        76.63388
406.66        76.09531
407.11        75.75481
407.55        75.74576
408.00        75.97983
408.45          76.349
408.90        76.82061
409.34         77.1124
409.79        76.58942
410.24        75.53445
410.68        74.98247
411.13        75.03925
411.58        75.16148
412.03        75.21005
412.47        75.19199
412.92        75.03449
413.37        74.78495
413.81        74.52508
414.26        74.43875
414.71        74.52774
415.15        74.76233
415.60        75.03121
416.05        75.22874
416.49        75.31524
416.94        75.31311
417.39        75.26295
417.83        75.20921
418.28        75.17825
418.73        75.15632
419.17        75.14606
419.62        75.15636
420.07        75.16941
420.51        75.15748
420.96        75.15176
421.41        75.07778
421.85        74.89896
422.30        74.88191
422.74        74.89611
423.19        74.47671
423.64        73.77466
424.08        73.71302
424.53        74.24517
424.98        74.50888
425.42        74.44874
425.87        74.64368
426.31        75.00932
426.76        74.88638
427.21        74.37355
427.65        74.14031
428.10        74.22369
428.54        74.27587
428.99        74.33293
429.44        74.39794
429.88        74.55829
430.33        75.11526
430.77         75.8079
431.22        76.35575
431.66        76.55563
432.11         75.9103
432.56        74.74741
433.00        74.45473
433.45        75.26141
433.89        75.89626
434.34        75.71047
434.78        76.80748
435.23        76.76643
435.67        74.01844
436.12        75.12381
436.57        74.99397
437.01        75.42362
437.46        75.69944
437.90        75.96017
438.35        74.27055
438.79        75.12177
439.24        74.96508
439.68        75.06347
440.13        75.50368
440.57        76.19462
441.02        76.24992
441.46        75.74743
441.91         76.2818
442.35        77.40414
442.80        77.14385
443.24        75.80463
443.69        75.77844
444.13        76.95631
444.58         77.4463
445.02        77.17786
445.47        77.18848
445.91        77.53043
446.36        77.79476
446.80        77.94599
447.24        78.19839
447.69        78.52122
448.13        78.30172
448.58        78.32783
449.02        78.20512
449.47        78.18282
449.91         78.0956
450.36        77.98325
450.80        77.90898
451.25        77.90907
451.69        77.94173
452.13        78.01541
452.58        78.13474
453.02        78.24103
453.47        78.24707
453.91        78.12526
454.36        77.90804
454.80        77.65475
455.24        77.38552
455.69        77.12863
456.13        77.04794
456.58        77.14897
457.02        76.70082
457.46        76.21764
457.91        76.51592
458.35        77.35248
458.79        77.39111
459.24        76.64179
459.68        75.70188
460.13        74.89927
460.57        74.58419
461.01        74.92533
461.46        74.96696
461.90        75.49875
462.34        76.52991
462.79        76.25653
463.23        76.42699
463.68        76.35391
464.12        76.18351
464.56        75.83846
465.01        74.81711
465.45        73.50304
465.89        73.46752
466.34        74.44586
466.78        74.73999
467.22        74.27718
467.67        73.99969
468.11        74.04528
468.55         74.1218
468.99         74.1841
469.44        74.08932
469.88        73.84977
470.32        73.66815
470.77        73.57317
471.21         73.4783
471.65        73.37624
472.10        73.30433
472.54        73.27583
472.98        73.27212
473.42        73.27201
473.87        73.41647
474.31        73.55356
474.75         73.2228
475.20        72.57563
475.64        72.32462
476.08        72.53266
476.52        72.46104
476.97        72.04879
477.41        72.13783
477.85        72.88718
478.29        71.76408
478.74        72.75713
479.18        72.90952
479.62        72.58816
480.06        72.52562
480.50        72.50541
480.95        72.45185
481.39        72.30941
481.83        72.15862
482.27        72.10457
482.72        72.11671
483.16        72.06606
483.60        72.06789
484.04        72.11081
484.48        72.31618
484.93         72.0294
485.37        72.24376
485.81        72.33019
486.25        71.13873
486.69        72.31272
487.14        73.63879
487.58        72.67754
488.02        71.98238
488.46        70.91727
488.90        70.88706
489.34        72.59998
489.79        73.33198
490.23        71.92871
490.67        71.13714
491.11        70.86892
491.55        71.03113
491.99        71.45946
492.43        71.51913
492.88        71.17749
493.32        70.99412
493.76        71.04606
494.20         71.0945
494.64        71.13332
495.08        71.28996
495.52         71.4749
495.96         71.4184
496.41        71.13545
496.85        70.96109
497.29        70.85061
497.73        70.83457
498.17        70.10764
498.61        70.29575
499.05        70.96488
499.49        71.15067
499.93        70.61879
500.37        70.53018
500.82        70.83466
501.26        70.92948
501.70        70.85883
502.14        70.91093
502.58        71.09454
503.02        71.22557
503.46        71.28677
503.90        71.34251
504.34        71.35646
504.78        71.25095
505.22        71.01397
505.66        70.71422
506.10        70.48576
506.54         70.2606
506.98        70.01202
507.42        70.43845
507.86        70.92384
508.30        70.11146
508.74        70.78434
509.18        70.58176
509.62        70.42579
510.06        70.29825
510.50        70.24616
510.94        70.21004
511.38        70.17673
511.82        70.21093
512.26        70.30616
512.70        70.45428
513.14        70.60847
513.58        70.68671
514.02        70.67159
514.46         70.5834
514.90        70.47452
515.34         70.4342
515.78        70.48174
516.22        70.58456
516.66         70.6976
517.10        70.74889
517.54        70.71889
517.98        70.63647
518.42        70.52309
518.86        70.41092
519.30        70.31712
519.74        70.23386
520.18        70.17535
520.62        70.16253
521.06        70.19903
521.50        70.28653
521.93        70.40233
522.37        70.48353
522.81        70.52264
523.25        70.52284
523.69         70.5169
524.13        70.56329
524.57         70.6628
525.01        70.78236
525.45        70.86806
525.89        70.83465
526.32        70.66208
526.76        70.41415
527.20        70.12498
527.64        69.85249
528.08        69.62704
528.52        69.43301
528.96        69.31565
529.40        69.34153
529.83        69.50425
530.27        69.78922
530.71        70.07954
531.15        70.19383
531.59        70.09536
532.03        69.83109
532.46        69.51431
532.90        69.37825
533.34        69.45953
533.78        69.64711
534.22        69.83834
534.66        69.96245
535.09        69.93174
535.53        69.64093
535.97        69.19634
536.41        68.94123
536.85         68.9269
537.28        68.99175
537.72        69.09987
538.16        69.24821
538.60        69.40604
539.04        69.57442
539.47        69.70937
539.91        69.78588
540.35        69.78504
540.79        69.71657
541.22        69.61409
541.66        69.56005
542.10        69.56586
542.54        69.61102
542.97        69.66032
543.41        69.68819
543.85         69.6749
544.29        69.64429
544.72        69.59054
545.16        69.54019
545.60        69.48714
546.04        69.44437
546.47        69.43649
546.91        69.46552
547.35        69.54462
547.79        69.73126
548.22        69.94932
548.66        70.01891
549.10        69.98425
549.53        69.84302
549.97        69.66558
550.41        69.43924
550.84        69.27399
551.28        69.31069
551.72        69.45307
552.15        69.61559
552.59        69.85537
553.03        69.18097
553.46        69.70329
553.90        69.64059
554.34        69.60735
554.77        69.60294
555.21        69.65747
555.65         69.6949
556.08        69.79772
556.52        69.83057
556.96        69.80735
557.39        69.87367
557.83        69.97647
558.27        69.74248
558.70        69.24294
559.14        69.00411
559.57        69.02761
560.01        68.96333
560.45         68.8456
560.88        68.99474
561.32        69.37239
561.75        69.62516
562.19        69.69815
562.63        69.65136
563.06        69.52703
563.50        69.35339
563.93        69.15877
564.37        69.27579
564.80        69.63128
565.24        69.55846
565.68        68.95527
566.11        69.59061
566.55        68.97901
566.98        68.84381
567.42        68.58942
567.85        68.70791
568.29        69.17056
568.72        69.50298
569.16        69.71462
569.60        70.11871
570.03        69.98586
570.47        70.18342
570.90        70.61304
571.34         69.5649
571.77        70.16515
572.21        70.53348
572.64        70.14854
573.08        70.54535
573.51        69.55679
573.95        69.68066
574.38        70.43835
574.82        70.37044
