SpectraSmart Spectrum 2.9.0.0
--------- Device Information -----------
Spectrum Name :  反射率_0
Saving Time :  2024/04/27 00:35:51
Spectro-Module Model Name : SE2030-DUVN
Spectro-Module Serial Number : OS361AC55029948
Wavelength Start : 200
Wavelength End : 1025
Wavelength Unit : Wavelength(nm)
Spectrum Unit : Reflectance(%)
-----------Spectrum Setting ------------
Integration Time : 20ms
Average : 10
Boxcar : 0
Background removal :  enabled
linearity correction :  enabled
SC :  disabled
Intensity correction :  disabled
DWT denoise :  enabled
savitzky-golay :  disabled
FFT :  disabled
Running average :  disabled
Kalman :  disabled
High pass :  disabled
---------------BEGIN--------------------
Wavelength(nm)             Reflectance(%)
200.29               0
200.75        55.13385
201.21        50.47382
201.67        46.54591
202.13         45.2546
202.58        46.63104
203.04        50.83223
203.50        57.45742
203.96        63.55582
204.42        66.69254
204.88        66.85174
205.34         64.9437
205.80         63.7872
206.26        64.21763
206.72        64.84505
207.18        65.18607
207.64        64.89919
208.10        63.84568
208.55        62.54945
209.01        59.97236
209.47        56.15839
209.93        53.04494
210.39         51.4902
210.85        51.19647
211.31        51.79861
211.77        53.46265
212.23        57.59016
212.69        69.46967
213.14        96.95406
213.60         107.437
214.06        97.74136
214.52        88.04433
214.98           82.84
215.44        79.82481
215.90        76.45586
216.36        73.75948
216.81        73.70876
217.27        77.20207
217.73        86.06152
218.19        97.39362
218.65        96.83225
219.11        82.65821
219.57          66.068
220.02        56.25672
220.48        57.35765
220.94        68.48416
221.40         90.9951
221.86        124.7842
222.32        149.3507
222.77        145.0056
223.23        124.4445
223.69        102.4819
224.15        87.91624
224.61        79.87289
225.06        74.51604
225.52        71.52834
225.98        70.34026
226.44        70.43122
226.90        72.04816
227.36        73.84827
227.81         73.4492
228.27        70.83103
228.73        66.73315
229.19        63.27979
229.65        62.98233
230.10        65.76736
230.56        70.70064
231.02        75.53912
231.48        76.72437
231.93        73.79208
232.39        68.73229
232.85        63.69585
233.31        61.44361
233.77        62.25987
234.22        65.02566
234.68        68.65119
235.14        71.55872
235.60        73.16321
236.05        74.13177
236.51         74.2395
236.97         73.1504
237.43         71.0266
237.88        67.94633
238.34        65.07837
238.80        64.77956
239.26        67.92238
239.71        75.08307
240.17        85.46806
240.63        95.68037
241.08        102.9987
241.54         106.459
242.00        107.2746
242.46        109.4303
242.91        116.0239
243.37        126.8138
243.83        142.5777
244.28        157.7314
244.74        161.2875
245.20        152.5071
245.66        139.9821
246.11        131.3997
246.57        127.6235
247.03        126.4169
247.48        123.1783
247.94        112.4333
248.40        97.98598
248.85        84.58782
249.31        75.43482
249.77        71.19931
250.22        70.71688
250.68        73.19172
251.14        78.00317
251.59        82.15005
252.05        83.65726
252.51        83.81153
252.96        82.76014
253.42        81.42977
253.88        80.12385
254.33        78.23087
254.79        77.84513
255.25        80.45277
255.70        85.53345
256.16         92.4071
256.62        97.92828
257.07        97.43147
257.53        92.59293
257.99        86.41273
258.44        81.16377
258.90         79.1189
259.35        79.11514
259.81        80.46227
260.27        81.83747
260.72        81.75743
261.18        80.48596
261.63        78.33615
262.09        76.47186
262.55        75.46562
263.00        75.12284
263.46        75.27713
263.91        75.11867
264.37        74.07977
264.83        72.13756
265.28        69.64734
265.74        67.36415
266.19        65.80457
266.65        65.11414
267.11        64.92423
267.56        64.92893
268.02        64.67107
268.47        63.99908
268.93        63.12718
269.38        62.05651
269.84        60.86005
270.30        59.58039
270.75         58.1672
271.21        56.86628
271.66        55.98472
272.12        55.55742
272.57        55.45171
273.03         55.3434
273.48        54.68122
273.94        53.43714
274.39        51.77473
274.85        50.09943
275.31        48.78694
275.76        47.89156
276.22        47.32995
276.67        46.89145
277.13        46.41523
277.58        45.77288
278.04        45.05384
278.49        44.26595
278.95         43.5648
279.40        42.90769
279.86        42.33708
280.31        41.67882
280.77        40.83948
281.22         39.7835
281.68        38.66484
282.13        37.63832
282.59         37.0202
283.04        36.80054
283.50        36.91199
283.95        37.13128
284.41         37.1293
284.86        36.81904
285.32        36.32466
285.77        35.82424
286.22        35.65222
286.68        35.84755
287.13        36.24277
287.59        36.63337
288.04        36.65433
288.50        36.27717
288.95        35.61612
289.41        34.90451
289.86        34.39112
290.32         34.1899
290.77        34.20053
291.22        34.36252
291.68         34.5643
292.13         34.7676
292.59        35.05347
293.04        35.45911
293.50        36.05698
293.95        36.84717
294.40        37.78831
294.86         38.8608
295.31        40.02983
295.77        41.28352
296.22        42.61698
296.68        44.00006
297.13        45.36336
297.58        46.71857
298.04         48.0943
298.49        49.56223
298.95        51.26017
299.40        53.18668
299.85        55.28423
300.31        57.46441
300.76        59.56461
301.21        61.54892
301.67        63.48104
302.12        65.35034
302.58        67.24319
303.03        69.13805
303.48        71.04514
303.94        73.01784
304.39        75.06111
304.84        77.20502
305.30        79.45548
305.75        81.71964
306.20        83.94958
306.66        86.13815
307.11        88.24997
307.57        90.30865
308.02        92.23243
308.47        94.04149
308.93        95.74639
309.38        97.38232
309.83        99.14142
310.29        101.0542
310.74        103.0645
311.19          104.99
311.65        106.4965
312.10        107.4932
312.55        108.0789
313.00        108.5289
313.46        109.2785
313.91        110.4008
314.36        111.8039
314.82        113.2351
315.27        114.2964
315.72         114.862
316.18        115.0923
316.63        115.1799
317.08          115.48
317.53        116.0904
317.99         116.889
318.44        117.7426
318.89        118.4041
319.35        118.7935
319.80         118.993
320.25        119.1109
320.70        119.3169
321.16        119.6561
321.61        120.1208
322.06        120.5942
322.51        120.9028
322.97         120.994
323.42        120.9282
323.87        120.8944
324.32          121.22
324.78        121.9225
325.23        122.9899
325.68        124.0389
326.13        124.4435
326.59        124.0643
327.04        123.1289
327.49        122.1022
327.94        121.7551
328.39        122.2741
328.85        123.3909
329.30        124.8299
329.75        125.7922
330.20        126.0123
330.66        125.6925
331.11        125.1848
331.56        124.9655
332.01        125.1982
332.46        125.6992
332.92        126.2663
333.37        126.7625
333.82        127.0438
334.27        127.2375
334.72        127.3791
335.17        127.4882
335.63         127.597
336.08        127.7641
336.53        128.0802
336.98        128.7587
337.43        129.8188
337.88        131.1473
338.34        132.5616
338.79        133.8918
339.24        134.9544
339.69        135.7774
340.14        136.2408
340.59        136.1887
341.05        135.6949
341.50         134.849
341.95         133.995
342.40         133.649
342.85        133.9426
343.30        134.7488
343.75        135.8463
344.20        136.8364
344.66        137.5643
345.11        138.1063
345.56        138.4882
346.01        138.7696
346.46        138.9928
346.91        139.1373
347.36        139.2127
347.81        139.2664
348.26        139.3136
348.72        139.3414
349.17        139.4161
349.62        139.6743
350.07        140.1075
350.52        140.6805
350.97        141.1223
351.42        141.0015
351.87        140.2634
352.32        139.0648
352.77        137.8101
353.22        137.0858
353.67        137.0133
354.13        137.4233
354.58        137.9832
355.03        138.0886
355.48        137.5739
355.93        136.6066
356.38        135.5435
356.83        134.9185
357.28        134.8171
357.73        135.0321
358.18        135.1767
358.63         134.649
359.08        133.3342
359.53        131.4818
359.98        129.4782
360.43        127.8686
360.88        126.7878
361.33        126.0698
361.78        125.5062
362.23        124.7716
362.68        123.7781
363.13        122.6498
363.58        121.4954
364.03        120.4602
364.48        119.5727
364.93        118.7486
365.38        117.9327
365.83        117.0666
366.28         116.134
366.73        115.1728
367.18        114.1869
367.63        113.1675
368.08        112.1237
368.53        111.0625
368.98         110.025
369.43        109.0723
369.88        108.2181
370.33        107.4503
370.78        106.7276
371.23        105.9865
371.68        105.2089
372.13        104.4026
372.58        103.6112
373.03        102.9022
373.48        102.2754
373.93        101.6963
374.38        101.0796
374.83        100.3034
375.28        99.35012
375.72        98.24682
376.17        97.15125
376.62         96.1768
377.07        95.37128
377.52        94.73045
377.97        94.18291
378.42        93.62571
378.87        93.03617
379.32        92.41103
379.77        91.88948
380.22        91.67181
380.67        91.74994
381.11        92.07944
381.56        92.28182
382.01        91.83492
382.46        90.68853
382.91        89.09677
383.36        87.53197
383.81         86.6382
384.26        86.51223
384.71        86.91781
385.15        87.56335
385.60        87.93478
386.05        87.85316
386.50         87.4685
386.95        86.83154
387.40        86.03342
387.85        85.16272
388.29        84.15673
388.74        83.25507
389.19        82.57632
389.64        82.13504
390.09        81.89481
390.54        81.74148
390.98         81.4741
391.43        81.08666
391.88        80.57784
392.33        80.06122
392.78        79.74106
393.23        79.56669
393.67        79.36957
394.12        79.20522
394.57        78.65292
395.02        78.37339
395.47        78.21504
395.91        78.31912
396.36         78.2565
396.81        78.02074
397.26        77.84544
397.71        77.70223
398.15        77.43468
398.60         77.1358
399.05        76.74957
399.50        76.33287
399.95        76.12505
400.39        76.09789
400.84        75.76599
401.29        75.19302
401.74        75.03629
402.18        75.19487
402.63        74.77962
403.08        73.93861
403.53        73.56937
403.97        73.70975
404.42        73.88879
404.87         73.9927
405.32        73.97692
405.76        73.77791
406.21        73.59002
406.66        73.41949
407.11        72.96207
407.55        72.43229
408.00        72.51073
408.45         73.0866
408.90        73.37743
409.34         73.1669
409.79        72.51801
410.24        71.68513
410.68        71.22243
411.13        71.21442
411.58        71.34178
412.03        71.46536
412.47        71.49944
412.92        71.36418
413.37        71.11584
413.81         70.8478
414.26        70.76817
414.71        70.88591
415.15        71.16187
415.60        71.47395
416.05        71.69541
416.49        71.78015
416.94        71.75539
417.39         71.6843
417.83        71.64782
418.28        71.67791
418.73        71.74999
419.17        71.83444
419.62        71.88927
420.07        71.89281
420.51        71.83659
420.96        71.78592
421.41        71.75252
421.85        71.71198
422.30        71.80492
422.74        71.88817
423.19         71.6756
423.64        71.21844
424.08              71
424.53        71.05647
424.98        71.10327
425.42        71.14537
425.87        71.40386
426.31         71.7753
426.76        71.80645
427.21        71.54707
427.65        71.41814
428.10        71.42486
428.54        71.45413
428.99        71.55291
429.44        71.38783
429.88         71.1964
430.33        72.00599
430.77         73.3493
431.22        73.94666
431.66        73.62541
432.11        72.71134
432.56        71.61346
433.00        71.25331
433.45        71.88245
433.89        72.82496
434.34        73.18629
434.78        74.70615
435.23        72.86002
435.67        71.35007
436.12        71.72884
436.57        72.00975
437.01         72.6898
437.46        72.90208
437.90        72.64903
438.35        72.25307
438.79        72.30727
439.24        72.34368
439.68        72.47159
440.13        72.85874
440.57        73.44833
441.02        73.50944
441.46        73.13438
441.91        73.83175
442.35        75.08553
442.80        74.68077
443.24        73.02952
443.69        73.04391
444.13        74.56564
444.58        75.16312
445.02        74.74873
445.47        74.68092
445.91        75.00719
446.36        75.21216
446.80        75.27734
447.24        75.35111
447.69        75.43726
448.13        75.46895
448.58        75.48892
449.02        75.58555
449.47        75.71964
449.91        75.69453
450.36        75.52327
450.80        75.28893
451.25        75.09493
451.69        74.98481
452.13          75.008
452.58        75.18193
453.02        75.41534
453.47        75.52793
453.91        75.46584
454.36        75.29668
454.80         75.0741
455.24        74.79986
455.69        74.50326
456.13        74.35938
456.58        74.35989
457.02        73.84748
457.46        73.11191
457.91        73.37931
458.35        74.30177
458.79           74.39
459.24        73.64252
459.68        72.68935
460.13        71.86092
460.57        71.74117
461.01        71.82948
461.46        71.92812
461.90        72.81588
462.34         73.1589
462.79        73.16915
463.23        73.35963
463.68        73.58585
464.12        73.49209
464.56        73.00353
465.01        72.03979
465.45        70.92043
465.89        70.66893
466.34        71.11939
466.78        71.40733
467.22        71.42821
467.67        70.73688
468.11        70.52045
468.55        70.47861
468.99        70.83326
469.44        70.81135
469.88        70.40302
470.32        70.10052
470.77        69.96413
471.21        69.86258
471.65        69.79279
472.10        69.79673
472.54        69.84699
472.98        69.84901
473.42        69.77412
473.87        69.81861
474.31        69.86432
474.75        69.42885
475.20         68.7472
475.64        68.55197
476.08        69.35827
476.52         69.3709
476.97        68.63129
477.41         68.8644
477.85        68.85258
478.29        68.15128
478.74        68.65725
479.18        69.16708
479.62         69.0723
480.06        69.18191
480.50        69.08226
480.95        69.10824
481.39        69.30462
481.83        68.53374
482.27        68.52402
482.72        68.95745
483.16        68.50502
483.60        68.47945
484.04        68.58814
484.48        68.76856
484.93        68.87006
485.37        68.97262
485.81        68.09217
486.25        68.32021
486.69        71.34914
487.14        71.99628
487.58        68.85179
488.02        69.29753
488.46        68.08672
488.90        67.28182
489.34         68.9568
489.79        69.19767
490.23        68.98827
490.67        68.37662
491.11        67.71874
491.55         67.4833
491.99        67.63686
492.43        67.55263
492.88        67.23791
493.32        67.26018
493.76        67.59151
494.20        67.80711
494.64        67.83991
495.08         67.9131
495.52        68.00142
495.96        67.76305
496.41        67.31511
496.85        67.39668
497.29        67.76947
497.73        67.73676
498.17         66.5771
498.61        66.40006
499.05        66.95228
499.49         67.3564
499.93        67.23874
500.37        67.23631
500.82        67.31138
501.26        67.06684
501.70        67.07086
502.14        67.13042
502.58        67.35739
503.02        67.47028
503.46        67.45287
503.90        67.47594
504.34        67.49743
504.78        67.39165
505.22        67.15988
505.66        66.80592
506.10        66.45679
506.54        66.36472
506.98         66.4928
507.42        66.63937
507.86        66.78597
508.30        66.50474
508.74         66.7898
509.18        66.69521
509.62        66.54937
510.06        66.44772
510.50        66.41547
510.94         66.4036
511.38        66.39417
511.82        66.38851
512.26        66.38218
512.70        66.39042
513.14        66.40991
513.58        66.42788
514.02        66.44311
514.46        66.45152
514.90        66.47249
515.34        66.54049
515.78        66.65282
516.22        66.79018
516.66        66.90468
517.10        66.92155
517.54        66.82792
517.98        66.65429
518.42        66.44592
518.86        66.27564
519.30        66.17035
519.74        66.11288
520.18        66.09972
520.62        66.12009
521.06        66.16738
521.50        66.25241
521.93        66.35449
522.37        66.41625
522.81        66.43322
523.25        66.40488
523.69        66.37312
524.13        66.41113
524.57        66.52364
525.01        66.67881
525.45        66.80813
525.89        66.80141
526.32        66.63351
526.76        66.37084
527.20        66.07392
527.64        65.84123
528.08         65.7079
528.52        65.64545
528.96        65.65396
529.40         65.7316
529.83        65.85899
530.27        66.03841
530.71        66.21069
531.15        66.28748
531.59        66.25038
532.03        66.11797
532.46        65.93457
532.90        65.82253
533.34        65.79961
533.78        65.79907
534.22        65.79172
534.66        65.81096
535.09        65.79825
535.53        65.62303
535.97         65.3342
536.41        65.17632
536.85        65.17424
537.28        65.19756
537.72        65.24655
538.16        65.36436
538.60        65.53205
539.04        65.75546
539.47        65.95671
539.91        65.99934
540.35        65.88657
540.79        65.78432
541.22        65.72361
541.66        65.66059
542.10        65.60787
542.54        65.62041
542.97        65.67249
543.41        65.71742
543.85        65.73451
544.29        65.74757
544.72        65.74136
545.16        65.72816
545.60        65.69938
546.04        65.66521
546.47        65.64555
546.91         65.6601
547.35        65.71841
547.79        65.82538
548.22         65.9431
548.66        66.01767
549.10        66.08133
549.53        66.02148
549.97        65.88152
550.41        65.69106
550.84        65.54459
551.28        65.53448
551.72         65.6002
552.15        65.73134
552.59        65.99212
553.03        65.42695
553.46        65.98182
553.90        65.90192
554.34        65.75926
554.77        65.56773
555.21        65.42177
555.65        65.41181
556.08        65.52362
556.52        65.71793
556.96        65.90178
557.39        66.01854
557.83          66.041
558.27        65.84522
558.70        65.48681
559.14        65.31857
559.57        65.33272
560.01        65.16856
560.45        64.92632
560.88        65.15964
561.32        65.75227
561.75        66.02289
562.19        65.93629
562.63        65.72222
563.06        65.49822
563.50        65.50691
563.93         65.6581
564.37        65.71208
564.80         65.6608
565.24        65.47465
565.68         65.0755
566.11        65.74277
566.55        65.13012
566.98        65.08983
567.42        65.02381
567.85        65.22802
568.29        65.66528
568.72        65.96489
569.16         66.1796
569.60         66.5742
570.03        66.47502
570.47        66.80575
570.90        67.47337
571.34        66.29117
571.77         67.1993
572.21        67.59908
572.64        67.11835
573.08        67.86384
573.51        66.90885
573.95        67.01482
574.38        67.55414
574.82        67.66405
