SpectraSmart Spectrum 2.9.0.0
--------- Device Information -----------
Spectrum Name :  反射率_0
Saving Time :  2024/04/27 00:38:06
Spectro-Module Model Name : SE2030-DUVN
Spectro-Module Serial Number : OS361AC55029948
Wavelength Start : 200
Wavelength End : 1025
Wavelength Unit : Wavelength(nm)
Spectrum Unit : Reflectance(%)
-----------Spectrum Setting ------------
Integration Time : 20ms
Average : 10
Boxcar : 0
Background removal :  enabled
linearity correction :  enabled
SC :  disabled
Intensity correction :  disabled
DWT denoise :  enabled
savitzky-golay :  disabled
FFT :  disabled
Running average :  disabled
Kalman :  disabled
High pass :  disabled
---------------BEGIN--------------------
Wavelength(nm)             Reflectance(%)
200.29               0
200.75        30.37757
201.21        34.32366
201.67        37.40932
202.13        37.98727
202.58        35.89428
203.04        31.81268
203.50        26.00544
203.96        20.37978
204.42        16.97884
204.88        15.67627
205.34        17.30741
205.80        22.21086
206.26         28.7981
206.72        35.59733
207.18        40.36846
207.64        41.46552
208.10        38.97007
208.55        32.98045
209.01        22.48265
209.47        12.40286
209.93        8.826589
210.39        10.11139
210.85        13.05296
211.31        15.87928
211.77        19.18362
212.23        25.76514
212.69        42.17927
213.14        72.96199
213.60        76.90036
214.06        58.71177
214.52        45.05235
214.98        38.94046
215.44         36.4728
215.90        34.89923
216.36        34.11472
216.81         34.1931
217.27        35.49699
217.73        39.32168
218.19        44.36729
218.65        44.02775
219.11        37.56133
219.57        29.70304
220.02        25.39224
220.48        27.23639
220.94        35.04755
221.40        50.10127
221.86        71.58121
222.32        84.36236
222.77        76.63877
223.23        58.98001
223.69        42.88229
224.15        34.74458
224.61        32.79176
225.06        33.34194
225.52        35.00049
225.98        36.48442
226.44        37.44775
226.90        38.56484
227.36         39.0129
227.81        37.32977
228.27        33.83627
228.73        29.22229
229.19        25.34385
229.65        24.30352
230.10         26.0786
230.56        29.90816
231.02        34.10766
231.48        35.90709
231.93        34.78851
232.39        32.05849
232.85        29.24625
233.31        28.34423
233.77        29.57576
234.22        32.20138
234.68        35.24763
235.14         37.3452
235.60        38.05906
236.05        37.85622
236.51        37.11319
236.97        36.55967
237.43        36.57919
237.88        36.94355
238.34        37.63279
238.80        38.89287
239.26        40.88189
239.71        44.15004
240.17        48.44156
240.63        52.73204
241.08        56.23555
241.54        58.27119
242.00        59.89829
242.46        64.10047
242.91        73.26441
243.37        88.60458
243.83         110.542
244.28        129.0211
244.74        129.1027
245.20        111.3867
245.66        88.85254
246.11        72.45901
246.57         63.0833
247.03        57.46727
247.48        54.91208
247.94        54.68647
248.40        55.97976
248.85        58.25075
249.31        60.77754
249.77        62.83562
250.22        64.50123
250.68        65.73091
251.14        67.01012
251.59        69.19374
252.05          72.187
252.51        75.65133
252.96         76.9052
253.42        74.19013
253.88        68.54853
254.33        61.32157
254.79        56.48956
255.25        57.15103
255.70        62.65251
256.16        71.42213
256.62        79.23191
257.07        79.79842
257.53        74.66051
257.99          67.729
258.44        62.04677
258.90        60.27301
259.35        61.18059
259.81        63.58321
260.27        65.85664
260.72        66.11121
261.18        64.54224
261.63        61.83725
262.09        59.23146
262.55        57.43887
263.00        56.37983
263.46        55.84303
263.91        55.19844
264.37        54.00294
264.83        52.23401
265.28        50.14526
265.74        48.32923
266.19        47.19817
266.65        46.83531
267.11        46.94551
267.56        47.16123
268.02        46.91936
268.47        46.07793
268.93        44.85235
269.38        43.46108
269.84        42.29456
270.30        41.43619
270.75        40.73928
271.21        40.13692
271.66        39.47676
272.12        38.71496
272.57        37.89632
273.03        37.01958
273.48        36.06195
273.94        35.09665
274.39        34.10893
274.85        33.21994
275.31        32.46786
275.76         31.8347
276.22        31.33247
276.67        30.89279
277.13        30.49656
277.58        30.08193
278.04        29.67664
278.49        29.22745
278.95        28.76855
279.40        28.26552
279.86        27.78382
280.31        27.28731
280.77         26.8224
281.22        26.36627
281.68        25.96099
282.13        25.61885
282.59        25.42916
283.04        25.36821
283.50        25.43444
283.95         25.5361
284.41         25.5368
284.86        25.40807
285.32        25.20837
285.77        25.03197
286.22        25.07501
286.68        25.35575
287.13        25.76603
287.59        26.18297
288.04        26.37621
288.50        26.32046
288.95        26.07347
289.41        25.75949
289.86        25.49465
290.32        25.36061
290.77        25.32253
291.22        25.38543
291.68        25.53811
292.13        25.77976
292.59          26.158
293.04        26.69897
293.50        27.44959
293.95        28.39911
294.40        29.51694
294.86        30.76571
295.31        32.08296
295.77         33.4465
296.22        34.84988
296.68        36.28202
297.13        37.71576
297.58        39.16552
298.04        40.64439
298.49        42.18722
298.95        43.87134
299.40        45.68541
299.85        47.58952
300.31        49.53643
300.76        51.43348
301.21         53.2567
301.67        55.04657
302.12        56.75853
302.58        58.41393
303.03         59.9898
303.48        61.52399
303.94        63.10089
304.39        64.78133
304.84        66.60265
305.30        68.54732
305.75        70.51934
306.20        72.45484
306.66        74.33598
307.11        76.14211
307.57        77.87515
308.02        79.43697
308.47        80.84651
308.93        82.12205
309.38        83.33556
309.83        84.71835
310.29        86.30546
310.74        88.02575
311.19        89.67873
311.65        90.90444
312.10        91.61174
312.55        91.91977
313.00         92.0961
313.46        92.55724
313.91        93.38203
314.36        94.47578
314.82        95.63325
315.27        96.53258
315.72         97.0601
316.18        97.34125
316.63        97.49643
317.08        97.76107
317.53        98.20006
317.99        98.72023
318.44        99.24583
318.89        99.63099
319.35        99.83486
319.80        99.92693
320.25        99.96703
320.70        100.0442
321.16        100.1897
321.61        100.4096
322.06        100.6821
322.51        100.9823
322.97        101.2788
323.42        101.5778
323.87        101.9015
324.32        102.3081
324.78         102.763
325.23        103.3155
325.68        103.7833
326.13         103.894
326.59        103.6046
327.04        103.0255
327.49        102.4379
327.94        102.3158
328.39        102.7658
328.85        103.6287
329.30        104.7031
329.75        105.3705
330.20        105.4419
330.66        105.0586
331.11        104.5654
331.56        104.4492
332.01        104.8544
332.46        105.6135
332.92        106.4451
333.37          107.03
333.82        107.1964
334.27        107.1052
334.72        106.9167
335.17        106.8756
335.63        107.0656
336.08         107.453
336.53        108.0183
336.98          108.78
337.43        109.7004
337.88        110.7528
338.34        111.7893
338.79        112.6724
339.24        113.2859
339.69        113.6576
340.14        113.8074
340.59        113.8011
341.05        113.7216
341.50        113.5676
341.95        113.4603
342.40        113.5744
342.85        113.9487
343.30         114.542
343.75        115.2502
344.20        115.8846
344.66         116.375
345.11        116.7523
345.56        117.0259
346.01        117.2257
346.46        117.3862
346.91        117.5145
347.36        117.6338
347.81        117.7969
348.26        118.0042
348.72        118.2125
349.17        118.4487
349.62        118.7881
350.07        119.2133
350.52        119.7224
350.97        120.0621
351.42        119.8326
351.87        119.0064
352.32        117.7325
352.77        116.4767
353.22        115.9211
353.67        116.1828
354.13        117.0529
354.58        118.0686
355.03        118.4093
355.48        117.8599
355.93        116.6694
356.38        115.3026
356.83        114.4589
357.28        114.2856
357.73        114.5366
358.18        114.8356
358.63        114.5893
359.08        113.6577
359.53        112.2758
359.98        110.7564
360.43        109.5346
360.88        108.7187
361.33        108.1618
361.78        107.6935
362.23        107.0584
362.68        106.1951
363.13        105.2143
363.58        104.2202
364.03        103.3526
364.48        102.6374
364.93        101.9943
365.38        101.3769
365.83        100.7313
366.28        100.0372
366.73        99.33262
367.18        98.58443
367.63        97.72813
368.08         96.7729
368.53        95.74721
368.98        94.76588
369.43        94.01023
369.88        93.51427
370.33        93.22166
370.78        93.00796
371.23         92.6667
371.68         92.1304
372.13        91.44261
372.58        90.68526
373.03        89.99405
373.48        89.40109
373.93        88.85673
374.38        88.28715
374.83        87.58839
375.28        86.74616
375.72        85.79436
376.17        84.87167
376.62        84.06911
377.07        83.42611
377.52        82.94041
377.97        82.53985
378.42        82.12011
378.87        81.65716
379.32        81.14655
379.77        80.72975
380.22        80.61413
380.67        80.79905
381.11        81.23975
381.56        81.56758
382.01        81.26056
382.46        80.25494
382.91        78.78538
383.36        77.32359
383.81        76.51601
384.26         76.4642
384.71        76.95008
385.15        77.64317
385.60        77.96849
386.05        77.75076
386.50        77.16457
386.95         76.3857
387.40        75.68938
387.85        75.17511
388.29        74.70874
388.74         74.3412
389.19        73.95934
389.64        73.53976
390.09        73.12035
390.54        72.73289
390.98        72.40148
391.43        72.16716
391.88         71.9924
392.33        71.84011
392.78        71.63007
393.23        71.34508
393.67        71.06598
394.12        70.85653
394.57        70.47167
395.02        70.00596
395.47        69.88904
395.91        70.06361
396.36        69.99225
396.81        69.67268
397.26        69.42521
397.71        69.23259
398.15        68.98981
398.60        68.79478
399.05        68.39158
399.50        67.94245
399.95        68.20332
400.39        68.97021
400.84         68.9112
401.29         68.0506
401.74        67.64165
402.18        67.69233
402.63        67.22501
403.08        66.39886
403.53        66.02357
403.97        66.14816
404.42        66.46001
404.87        66.78314
405.32        66.87199
405.76        66.63744
406.21        66.29362
406.66        65.94198
407.11        65.50101
407.55        65.15252
408.00        65.37149
408.45        66.00767
408.90         66.2264
409.34        65.91348
409.79        65.52288
410.24        65.19012
410.68        64.93043
411.13         64.7988
411.58        64.76883
412.03        64.78748
412.47        64.77921
412.92        64.69701
413.37        64.59059
413.81        64.47024
414.26        64.41249
414.71         64.4069
415.15        64.45152
415.60        64.50385
416.05        64.57343
416.49        64.65762
416.94        64.74096
417.39        64.82173
417.83        64.88369
418.28        64.92731
418.73         64.9558
419.17        64.97184
419.62        64.98362
420.07        64.98792
420.51        64.96277
420.96        64.94617
421.41        64.92521
421.85        64.87518
422.30        64.91932
422.74        64.95899
423.19        64.81477
423.64        64.51921
424.08        64.41023
424.53        64.49914
424.98         64.5651
425.42        64.60558
425.87        64.80315
426.31        65.07568
426.76        65.01878
427.21          64.701
427.65        64.57322
428.10        64.63535
428.54        64.68929
428.99        64.77871
429.44        64.67867
429.88        64.54736
430.33        65.23392
430.77        66.32037
431.22        66.57102
431.66        65.96899
432.11        65.27885
432.56        64.84145
433.00        64.87138
433.45        65.43915
433.89        66.36111
434.34        66.94244
434.78        67.40984
435.23        66.19267
435.67        64.64351
436.12        65.18366
436.57        65.43079
437.01        65.91946
437.46        66.09145
437.90         65.9452
438.35        65.25034
438.79        65.30231
439.24        65.24599
439.68        65.40565
440.13        65.89233
440.57        66.60889
441.02        66.74993
441.46        66.39288
441.91         67.0491
442.35         68.2527
442.80        67.92204
443.24        66.42828
443.69        66.42874
444.13        67.77837
444.58        68.28411
445.02           67.87
445.47        67.75317
445.91        68.01864
446.36        68.25093
446.80        68.43291
447.24        68.72034
447.69          69.055
448.13         69.0698
448.58        69.10236
449.02        69.04782
449.47         69.0297
449.91        68.94102
450.36        68.82287
450.80        68.72585
451.25        68.68276
451.69        68.66061
452.13        68.66921
452.58        68.70261
453.02        68.74825
453.47          68.789
453.91         68.8036
454.36        68.81415
454.80        68.79815
455.24        68.56866
455.69        68.11597
456.13        67.76295
456.58        67.71194
457.02        66.75385
457.46        66.99824
457.91        67.23817
458.35        67.76027
458.79        67.74712
459.24        67.21943
459.68        66.41017
460.13         65.5816
460.57        65.27874
461.01        65.67947
461.46        65.42542
461.90        65.98302
462.34        66.93994
462.79        66.68494
463.23        66.84663
463.68        66.76487
464.12        66.56529
464.56        66.18269
465.01        65.36758
465.45        64.39861
465.89        64.17157
466.34        64.54821
466.78        64.85933
467.22        65.01995
467.67        64.35169
468.11        64.28221
468.55        64.22723
468.99        64.50874
469.44        64.46787
469.88        64.10439
470.32        63.82343
470.77        63.68616
471.21        63.61434
471.65        63.60809
472.10        63.69343
472.54        63.81598
472.98        63.86244
473.42        63.79819
473.87        63.76796
474.31        63.70773
474.75        63.35064
475.20        62.83778
475.64        62.68759
476.08         62.9087
476.52        62.89528
476.97        62.59707
477.41        62.62613
477.85        63.06624
478.29        62.33838
478.74        62.82715
479.18        62.84521
479.62        63.03271
480.06        63.03589
480.50        62.84276
480.95        62.67931
481.39        62.57063
481.83         62.2687
482.27        62.20963
482.72        62.38768
483.16        62.32843
483.60        62.37494
484.04        62.29614
484.48        62.50265
484.93        62.95197
485.37        62.06797
485.81        62.05819
486.25         61.8038
486.69        63.09486
487.14        63.45374
487.58        61.68735
488.02        62.87986
488.46        61.50072
488.90        61.33626
489.34        62.41608
489.79        62.99155
490.23        62.80037
490.67        62.15876
491.11        61.29849
491.55        61.19374
491.99        61.74581
492.43        61.79811
492.88        61.31631
493.32        61.09884
493.76        61.19569
494.20        61.26046
494.64        61.28178
495.08        61.37503
495.52        61.48839
495.96        61.51407
496.41        61.45162
496.85        61.36723
497.29        61.22103
497.73        61.32012
498.17        60.90372
498.61        60.93372
499.05        61.12033
499.49        61.19799
499.93        60.97094
500.37        61.01792
500.82        61.24182
501.26        61.33724
501.70        61.27206
502.14         61.1638
502.58        61.08876
503.02        61.13097
503.46        61.30639
503.90        61.57763
504.34        61.82825
504.78        61.87766
505.22        61.68185
505.66        61.30955
506.10        60.91767
506.54        60.69975
506.98        60.66143
507.42        61.03588
507.86        61.03442
508.30         61.1207
508.74        61.16709
509.18        61.07532
509.62        60.91668
510.06        60.78745
510.50         60.7227
510.94        60.68062
511.38        60.66583
511.82        60.69373
512.26        60.75869
512.70        60.85919
513.14        60.96944
513.58        61.04156
514.02        61.06298
514.46        61.04467
514.90        61.00077
515.34        60.95896
515.78        60.92884
516.22        60.89989
516.66        60.87804
517.10        60.87202
517.54        60.88188
517.98        60.91167
518.42        60.93812
518.86        60.92162
519.30        60.85759
519.74        60.75665
520.18        60.66178
520.62        60.63998
521.06        60.70496
521.50        60.83947
521.93        60.99372
522.37        61.06652
522.81        61.04187
523.25        60.94299
523.69        60.83012
524.13         60.7987
524.57        60.86432
525.01        60.98993
525.45        61.10984
525.89        61.11942
526.32        60.99075
526.76         60.7824
527.20        60.54545
527.64        60.36338
528.08         60.2632
528.52        60.21679
528.96        60.21812
529.40        60.25696
529.83        60.31947
530.27        60.41867
530.71        60.51275
531.15        60.53994
531.59        60.49082
532.03        60.37484
532.46        60.24128
532.90        60.21375
533.34        60.30169
533.78        60.43549
534.22        60.54829
534.66        60.61173
535.09        60.56259
535.53        60.29723
535.97        59.90931
536.41        59.70138
536.85        59.71541
537.28        59.81025
537.72         59.9434
538.16        60.09146
538.60        60.22158
539.04        60.33867
539.47        60.40998
539.91        60.42396
540.35        60.36835
540.79        60.24911
541.22        60.09869
541.66        59.99408
542.10        59.94705
542.54        59.94218
542.97         59.9465
543.41        59.93044
543.85         59.8799
544.29        59.82322
544.72        59.76015
545.16        59.72385
545.60         59.7091
546.04         59.7076
546.47        59.74703
546.91        59.85787
547.35        60.03414
547.79        60.28143
548.22        60.50787
548.66        60.54118
549.10        60.42781
549.53        60.19711
549.97        59.94824
550.41        59.70162
550.84         59.5512
551.28        59.66054
551.72        59.92411
552.15        60.07636
552.59        60.11771
553.03        59.79993
553.46        59.94292
553.90        59.87442
554.34         59.8312
554.77        59.81869
555.21        59.82758
555.65        59.90185
556.08         60.0036
556.52        60.13641
556.96        60.23486
557.39        60.24056
557.83        60.11013
558.27        59.89817
558.70        59.31323
559.14         59.1631
559.57        59.32081
560.01        59.51447
560.45        59.65884
560.88        59.78706
561.32        59.88764
561.75        59.89754
562.19        59.85597
562.63        59.73936
563.06        59.60764
563.50        59.66763
563.93        59.82095
564.37        59.87658
564.80        59.83884
565.24        59.70572
565.68        59.40241
566.11        59.99139
566.55        59.32075
566.98        59.26854
567.42        59.31355
567.85        59.17469
568.29        59.51288
568.72         59.8167
569.16        60.26681
569.60        60.45288
570.03        60.56094
570.47        60.65877
570.90        60.83052
571.34        60.34978
571.77         60.5565
572.21        60.71111
572.64        60.43957
573.08        60.81762
573.51        60.06018
573.95        60.20749
574.38        60.45173
574.82        60.37838
