SpectraSmart Spectrum 2.9.0.0
--------- Device Information -----------
Spectrum Name :  反射率_0
Saving Time :  2024/04/27 00:33:09
Spectro-Module Model Name : SE2030-DUVN
Spectro-Module Serial Number : OS361AC55029948
Wavelength Start : 200
Wavelength End : 1025
Wavelength Unit : Wavelength(nm)
Spectrum Unit : Reflectance(%)
-----------Spectrum Setting ------------
Integration Time : 20ms
Average : 10
Boxcar : 0
Background removal :  enabled
linearity correction :  enabled
SC :  disabled
Intensity correction :  disabled
DWT denoise :  enabled
savitzky-golay :  disabled
FFT :  disabled
Running average :  disabled
Kalman :  disabled
High pass :  disabled
---------------BEGIN--------------------
Wavelength(nm)             Reflectance(%)
200.29               0
200.75        32.93516
201.21        37.54431
201.67        42.03042
202.13        43.90327
202.58        42.94992
203.04         40.1118
203.50        36.20935
203.96        34.01332
204.42        35.55817
204.88        40.09985
205.34        46.22836
205.80         51.1559
206.26        53.30295
206.72        53.09687
207.18        51.39695
207.64        48.70021
208.10         45.0042
208.55        40.16751
209.01        32.97092
209.47        25.79714
209.93        22.74783
210.39        23.19931
210.85         26.0023
211.31        31.37662
211.77        41.34375
212.23         63.0087
212.69        115.2253
213.14        197.3962
213.60        184.9616
214.06        118.9928
214.52        76.75351
214.98        58.85137
215.44        52.13297
215.90         49.3462
216.36        48.56429
216.81        47.76068
217.27         46.3205
217.73        45.65512
218.19        44.54132
218.65          39.801
219.11        33.55521
219.57        28.61123
220.02        27.01572
220.48        30.14448
220.94        38.11887
221.40        52.31941
221.86        73.14146
222.32        89.10601
222.77        88.09659
223.23         76.9279
223.69        63.75668
224.15        53.56421
224.61        46.42499
225.06        40.69763
225.52        36.87466
225.98         35.3457
226.44        35.71305
226.90        37.73053
227.36        40.12115
227.81        40.67261
228.27        39.13789
228.73        36.21479
229.19        33.52423
229.65        32.94182
230.10        34.50727
230.56          37.566
231.02        40.53968
231.48         40.9679
231.93        38.55278
232.39        34.60853
232.85        30.89216
233.31        29.63514
233.77        31.01322
234.22        34.23446
234.68        37.89545
235.14        39.90303
235.60        39.62987
236.05        37.61451
236.51        34.77535
236.97        33.06851
237.43        33.35081
237.88        35.16816
238.34        37.65858
238.80        39.57483
239.26        40.54605
239.71        41.20203
240.17        41.88464
240.63        43.81427
241.08        47.74674
241.54        52.90585
242.00        59.26545
242.46        67.43773
242.91        78.92309
243.37        95.66287
243.83        117.9967
244.28          136.12
244.74        135.6075
245.20        116.0553
245.66        93.42124
246.11        82.12042
246.57        82.33533
247.03        89.67588
247.48        97.62859
247.94        95.22703
248.40        84.12836
248.85         71.6524
249.31        61.99525
249.77        56.48801
250.22        54.10855
250.68        53.33915
251.14        54.41285
251.59        57.77856
252.05        62.67702
252.51        68.43095
252.96        71.82144
253.42        70.65343
253.88        65.89605
254.33        58.87501
254.79        53.34445
255.25        52.18772
255.70        54.92924
256.16        60.24304
256.62        64.92311
257.07        64.37651
257.53        59.88633
257.99         54.3168
258.44        49.84344
258.90         48.4082
259.35        49.00029
259.81        50.75042
260.27        52.33804
260.72        52.24176
261.18        50.66326
261.63        48.18206
262.09        45.87696
262.55        44.42723
263.00        43.73789
263.46        43.55451
263.91        43.27768
264.37        42.40572
264.83         40.9184
265.28        39.09008
265.74           37.45
266.19        36.39373
266.65        36.00212
267.11        36.00602
267.56        36.13594
268.02        35.97342
268.47        35.40695
268.93        34.60903
269.38        33.67131
269.84        32.77529
270.30        31.97288
270.75        31.18231
271.21        30.48304
271.66        29.95923
272.12         29.6049
272.57        29.38725
273.03        29.13499
273.48        28.56438
273.94        27.67913
274.39        26.55957
274.85        25.47176
275.31         24.6754
275.76        24.19555
276.22        23.96027
276.67        23.79606
277.13        23.51012
277.58        23.03383
278.04        22.46976
278.49        21.87758
278.95        21.43195
279.40        21.12438
279.86        20.92926
280.31        20.75493
280.77        20.55094
281.22         20.2739
281.68        19.99225
282.13        19.70402
282.59        19.45683
283.04        19.24359
283.50        19.06209
283.95        18.91963
284.41        18.83636
284.86        18.81201
285.32         18.8549
285.77        18.92653
286.22        19.01503
286.68        19.11476
287.13        19.20016
287.59        19.29115
288.04        19.38594
288.50        19.49633
288.95        19.59808
289.41        19.68344
289.86        19.69288
290.32        19.65709
290.77        19.60196
291.22        19.59595
291.68         19.7263
292.13        20.01502
292.59        20.46097
293.04        21.04948
293.50        21.76561
293.95        22.58775
294.40        23.52237
294.86        24.55351
295.31         25.6478
295.77        26.80234
296.22        28.01032
296.68        29.28844
297.13        30.65635
297.58        32.12823
298.04        33.70091
298.49        35.36411
298.95        37.11535
299.40        38.93051
299.85        40.80136
300.31        42.71289
300.76        44.62889
301.21        46.54541
301.67        48.48418
302.12        50.41518
302.58        52.37212
303.03        54.32406
303.48        56.29216
303.94        58.31248
304.39        60.38133
304.84        62.52127
305.30          64.733
305.75        66.95438
306.20        69.17213
306.66           71.38
307.11        73.54015
307.57        75.64202
308.02        77.57197
308.47        79.34183
308.93        80.97887
309.38        82.54925
309.83        84.27444
310.29        86.19094
310.74        88.22662
311.19        90.19746
311.65        91.76737
312.10        92.84066
312.55        93.52204
313.00        94.04619
313.46        94.78674
313.91         95.8177
314.36          97.059
314.82        98.33805
315.27        99.38569
315.72        100.0981
316.18        100.5844
316.63        100.9351
317.08        101.3408
317.53        101.8609
317.99        102.4247
318.44        102.9785
318.89        103.4104
319.35        103.6883
319.80         103.862
320.25        103.9959
320.70        104.1877
321.16        104.4626
321.61        104.8316
322.06        105.2252
322.51        105.5373
322.97        105.7311
323.42        105.8459
323.87        105.9937
324.32        106.3806
324.78        107.0038
325.23        107.8665
325.68        108.7088
326.13        109.1148
326.59        108.9869
327.04        108.4806
327.49        107.8912
327.94        107.7224
328.39        108.1037
328.85        108.8551
329.30        109.8425
329.75        110.5607
330.20          110.84
330.66        110.7926
331.11        110.6497
331.56        110.7037
332.01        111.0527
332.46        111.5779
332.92        112.0991
333.37        112.4933
333.82        112.6459
334.27        112.6595
334.72        112.6277
335.17        112.6791
335.63        112.8649
336.08        113.2164
336.53        113.7276
336.98        114.4339
337.43        115.3154
337.88         116.318
338.34        117.3695
338.79        118.4732
339.24         119.515
339.69        120.4736
340.14         121.175
340.59        121.3718
341.05        121.0896
341.50        120.4319
341.95        119.7373
342.40        119.5182
342.85        119.9002
343.30        120.7437
343.75         121.815
344.20        122.7022
344.66        123.2664
345.11        123.6199
345.56        123.8249
346.01        123.9906
346.46        124.1754
346.91        124.3322
347.36        124.4927
347.81        124.7381
348.26        125.0596
348.72        125.4164
349.17        125.7569
349.62         126.027
350.07        126.1988
350.52        126.3202
350.97         126.269
351.42        125.8575
351.87        125.1088
352.32        124.1062
352.77        123.1987
353.22        122.8916
353.67        123.2531
354.13        124.1192
354.58        125.0902
355.03         125.447
355.48        124.9999
355.93        123.9548
356.38        122.7205
356.83        121.9206
357.28        121.6894
357.73         121.812
358.18        121.9652
358.63         121.641
359.08        120.7161
359.53        119.3895
359.98        117.9277
360.43        116.6957
360.88        115.7865
361.33        115.0895
361.78        114.4467
362.23        113.6215
362.68        112.5737
363.13        111.4103
363.58        110.2837
364.03        109.4082
364.48        108.8137
364.93        108.3947
365.38        108.0185
365.83        107.4892
366.28        106.7463
366.73        105.8574
367.18         104.866
367.63        103.8343
368.08        102.8034
368.53        101.7687
368.98        100.7757
369.43        99.89489
369.88        99.14024
370.33        98.49907
370.78        97.93561
371.23        97.38465
371.68        96.81781
372.13        96.23849
372.58        95.64168
373.03        95.02366
373.48        94.37734
373.93        93.69054
374.38        92.96084
374.83        92.19847
375.28        91.41615
375.72        90.60626
376.17        89.83644
376.62         89.0921
377.07        88.38906
377.52        87.75418
377.97        87.19013
378.42        86.71059
378.87        86.31586
379.32        85.96476
379.77        85.70232
380.22        85.59547
380.67          85.617
381.11         85.7618
381.56        85.77261
382.01        85.32672
382.46         84.4106
382.91        83.19649
383.36        82.01194
383.81        81.30056
384.26        81.12579
384.71        81.32569
385.15         81.7054
385.60        81.91463
386.05         81.8282
386.50         81.5414
386.95        81.06991
387.40        80.44813
387.85        79.73833
388.29        78.90503
388.74        78.15562
389.19        77.57443
389.64        77.17564
390.09        76.92651
390.54        76.76648
390.98        76.56907
391.43        76.33333
391.88        76.07569
392.33        75.81586
392.78        75.54858
393.23        75.27295
393.67        75.04222
394.12        74.89719
394.57        74.53714
395.02        74.05937
395.47        73.95536
395.91        74.16211
396.36        74.09341
396.81        73.73687
397.26        73.42119
397.71        73.17084
398.15        72.89906
398.60        72.71315
399.05         72.4533
399.50        72.17419
399.95        72.29623
400.39        72.71041
400.84        72.50597
401.29        71.77003
401.74        71.66501
402.18        72.06766
402.63        71.61737
403.08        70.51186
403.53        70.05229
403.97        70.30419
404.42         70.6225
404.87        70.83114
405.32        70.85406
405.76        70.61401
406.21        70.29381
406.66        69.96438
407.11        69.50539
407.55        69.11663
408.00        69.24166
408.45        69.76983
408.90        70.15188
409.34        70.14275
409.79        69.57223
410.24        68.70589
410.68        68.26069
411.13        68.32714
411.58        68.51455
412.03        68.65723
412.47        68.65719
412.92        68.43568
413.37          68.059
413.81        67.68311
414.26        67.59866
414.71        67.82719
415.15        68.30878
415.60        68.84692
416.05        69.17329
416.49        69.20367
416.94        69.00907
417.39        68.74101
417.83        68.62001
418.28        68.71203
418.73        68.94772
419.17        69.23039
419.62        69.40906
420.07        69.42885
420.51         69.3204
420.96        69.18919
421.41        69.09637
421.85        69.03612
422.30        69.15952
422.74        69.30213
423.19        69.07669
423.64        68.55743
424.08         68.3939
424.53        68.60616
424.98        68.70575
425.42        68.67664
425.87        68.92024
426.31        69.32954
426.76        69.22654
427.21        68.74489
427.65        68.72113
428.10        69.09264
428.54        69.28063
428.99        69.30714
429.44        69.09743
429.88        68.90514
430.33        69.66997
430.77        70.93104
431.22         71.4454
431.66        71.08337
432.11        70.15078
432.56        69.11861
433.00          69.119
433.45        70.26205
433.89        71.27251
434.34        71.34801
434.78        72.15398
435.23        71.18755
435.67         68.9676
436.12        69.68423
436.57        69.85966
437.01        70.61955
437.46        70.89214
437.90        70.64227
438.35        70.45363
438.79        70.40089
439.24        70.43771
439.68        70.55344
440.13        70.81732
440.57        71.19432
441.02        71.35066
441.46        71.27663
441.91        71.65735
442.35        72.22662
442.80        71.98134
443.24        71.15366
443.69        71.32211
444.13        72.33193
444.58        72.75058
445.02        72.50944
445.47        72.40192
445.91        72.52514
446.36        72.70443
446.80        72.94118
447.24        73.27253
447.69        73.60134
448.13        73.75481
448.58        73.71751
449.02        73.51687
449.47        73.26575
449.91        73.11041
450.36        73.11314
450.80        73.20439
451.25         73.3426
451.69        73.40444
452.13         73.3829
452.58        73.30157
453.02        73.19006
453.47        73.14388
453.91        73.17443
454.36        73.08395
454.80          73.148
455.24        73.00256
455.69        72.71877
456.13         72.5231
456.58        72.48158
457.02        71.96742
457.46        71.22421
457.91        71.85941
458.35         72.5642
458.79        72.71344
459.24        72.03008
459.68        71.12111
460.13        70.28393
460.57        70.03697
461.01        70.59955
461.46        70.28222
461.90        70.93037
462.34        72.19454
462.79         71.5586
463.23        71.77457
463.68        71.85103
464.12        71.67664
464.56        71.16268
465.01        70.27199
465.45        69.30797
465.89        68.99155
466.34        69.23848
466.78        69.72663
467.22        70.29573
467.67        69.58892
468.11        69.30795
468.55        69.22865
468.99        69.73847
469.44        69.75428
469.88        69.27042
470.32        68.91912
470.77        68.77823
471.21        68.70155
471.65        68.68703
472.10        68.77349
472.54        68.90194
472.98        68.93517
473.42         68.8316
473.87        68.79489
474.31        68.73613
474.75        68.23273
475.20        67.47023
475.64        67.28575
476.08        67.69182
476.52        67.69345
476.97        67.17165
477.41        67.65768
477.85        67.97621
478.29        67.38085
478.74        67.49941
479.18        68.12584
479.62        67.86112
480.06        67.94656
480.50        67.77173
480.95        67.81562
481.39        68.09242
481.83        67.40125
482.27        67.43821
482.72        67.83813
483.16        67.37115
483.60        67.45332
484.04        67.58672
484.48         67.9227
484.93        68.16306
485.37        68.18355
485.81        67.16747
486.25        66.84742
486.69        69.21126
487.14        69.65599
487.58        67.34527
488.02        67.86932
488.46        66.76521
488.90        66.96166
489.34        67.89417
489.79        68.36962
490.23        68.43847
490.67        67.90906
491.11        67.11647
491.55        66.81387
491.99        66.98985
492.43        66.84042
492.88        66.37783
493.32        66.22332
493.76        66.39893
494.20        66.56564
494.64        66.68044
495.08        66.90499
495.52        67.15527
495.96        67.10735
496.41        66.81095
496.85        66.73489
497.29        66.78539
497.73        66.72163
498.17        66.03584
498.61        65.88129
499.05        66.08826
499.49        66.31754
499.93        66.26295
500.37        66.34327
500.82        66.49702
501.26        66.48354
501.70        66.50011
502.14          66.718
502.58        66.46825
503.02        66.50541
503.46        66.61061
503.90        66.74632
504.34        66.83656
504.78        66.79311
505.22         66.6037
505.66        66.30589
506.10        66.00604
506.54        65.79207
506.98        65.68505
507.42        65.78948
507.86        66.07597
508.30        65.77146
508.74        65.98797
509.18        65.84203
509.62        65.71704
510.06        65.65273
510.50        65.67374
510.94        65.73944
511.38        65.80928
511.82        65.85378
512.26        65.85886
512.70        65.84206
513.14        65.81577
513.58        65.79723
514.02        65.79353
514.46         65.7935
514.90        65.80308
515.34        65.83511
515.78        65.88419
516.22        65.94227
516.66         65.9827
517.10         65.9611
517.54        65.87372
517.98        65.74537
518.42        65.60116
518.86        65.48133
519.30        65.40381
519.74        65.35602
520.18         65.3569
520.62        65.43342
521.06        65.58039
521.50         65.7887
521.93        65.99867
522.37        66.09122
522.81        66.04996
523.25        65.90234
523.69        65.72497
524.13        65.64219
524.57        65.68002
525.01        65.79733
525.45        65.93027
525.89        65.97318
526.32        65.89433
526.76        65.75413
527.20        65.58928
527.64        65.46128
528.08         65.3913
528.52        65.35196
528.96        65.35187
529.40        65.40702
529.83        65.50616
530.27        65.65263
530.71        65.78263
531.15        65.79998
531.59         65.6906
532.03        65.48087
532.46        65.24153
532.90        65.13219
533.34        65.17272
533.78        65.27966
534.22        65.38343
534.66        65.45683
535.09        65.42677
535.53        65.17947
535.97        64.79519
536.41        64.56748
536.85        64.53792
537.28        64.56644
537.72        64.63288
538.16        64.75507
538.60        64.90916
539.04        65.08591
539.47        65.23745
539.91        65.33092
540.35        65.34457
540.79        65.29215
541.22        65.19846
541.66        65.13054
542.10        65.09899
542.54        65.08525
542.97        65.07567
543.41        65.07827
543.85        65.07815
544.29        65.08839
544.72        65.07716
545.16        65.02639
545.60        64.92687
546.04        64.81895
546.47         64.7125
546.91        64.72824
547.35        64.86606
547.79        65.04798
548.22         65.2222
548.66         65.4075
549.10        65.59605
549.53        65.52547
549.97        65.26553
550.41         65.0181
550.84        64.89213
551.28        64.89216
551.72         64.9426
552.15        65.04133
552.59        65.25257
553.03        64.64913
553.46         65.1731
553.90        65.10091
554.34        64.99354
554.77        64.91164
555.21        64.81241
555.65        64.91296
556.08        65.13193
556.52        65.41372
556.96        65.62402
557.39        65.61339
557.83        65.39738
558.27        65.03513
558.70        64.63367
559.14        64.44698
559.57        64.48064
560.01        64.50836
560.45         64.5276
560.88        64.81583
561.32        65.28265
561.75        65.42035
562.19        65.26961
562.63        65.20656
563.06        65.25458
563.50         65.2644
563.93        65.17432
564.37        65.09725
564.80         65.0682
565.24        64.94682
565.68         64.6128
566.11        65.26829
566.55        64.57424
566.98        64.43994
567.42        64.31388
567.85        64.45986
568.29        64.84416
568.72        65.20514
569.16        65.57296
569.60        65.72878
570.03        65.86677
570.47        66.03826
570.90        66.37229
571.34        65.52287
571.77        66.17377
572.21         66.2364
572.64        65.98336
573.08        66.47047
573.51         65.5045
573.95        65.59222
574.38        66.28458
574.82        66.13158
