SpectraSmart Spectrum 2.9.0.0
--------- Device Information -----------
Spectrum Name :  反射率_0
Saving Time :  2024/04/27 00:35:04
Spectro-Module Model Name : SE2030-DUVN
Spectro-Module Serial Number : OS361AC55029948
Wavelength Start : 200
Wavelength End : 1025
Wavelength Unit : Wavelength(nm)
Spectrum Unit : Reflectance(%)
-----------Spectrum Setting ------------
Integration Time : 20ms
Average : 10
Boxcar : 0
Background removal :  enabled
linearity correction :  enabled
SC :  disabled
Intensity correction :  disabled
DWT denoise :  enabled
savitzky-golay :  disabled
FFT :  disabled
Running average :  disabled
Kalman :  disabled
High pass :  disabled
---------------BEGIN--------------------
Wavelength(nm)             Reflectance(%)
200.29               0
200.75        42.99877
201.21        44.51704
201.67        46.53975
202.13        47.99479
202.58        48.74444
203.04        49.73389
203.50         51.0803
203.96        52.37309
204.42        53.27797
204.88        53.19979
205.34        52.75066
205.80         53.5929
206.26        55.62445
206.72        57.88357
207.18        59.05616
207.64        57.75506
208.10        53.76497
208.55        47.11245
209.01        37.48198
209.47        30.93678
209.93        32.02806
210.39        37.12222
210.85        42.60897
211.31        47.63839
211.77        53.78717
212.23        65.17701
212.69        91.37052
213.14        133.7555
213.60        128.2963
214.06         95.0855
214.52         73.1328
214.98        62.82589
215.44        57.62536
215.90        54.10876
216.36        51.76001
216.81        50.23602
217.27        49.75169
217.73        51.20473
218.19        54.41901
218.65        56.47486
219.11        56.06401
219.57        54.28203
220.02        53.84508
220.48        57.62177
220.94         65.9898
221.40        80.08466
221.86        99.17493
222.32        109.9851
222.77        101.8328
223.23        84.52866
223.69          67.741
224.15        56.30132
224.61        49.40046
225.06        44.94198
225.52        42.48306
225.98        41.45559
226.44        41.45501
226.90        42.43489
227.36         43.8919
227.81        44.88073
228.27        45.17669
228.73        44.79539
229.19        44.20139
229.65        44.02692
230.10        44.27531
230.56        44.75926
231.02        44.93223
231.48        43.99427
231.93        41.99048
232.39        39.68381
232.85         37.7078
233.31        36.89009
233.77        37.27407
234.22        38.50788
234.68        40.27021
235.14        42.20731
235.60        44.13771
236.05          46.264
236.51        48.16628
236.97        48.95745
237.43         48.3785
237.88        46.56706
238.34        44.51991
238.80        44.25115
239.26        46.57398
239.71        51.93454
240.17        59.62266
240.63        66.79381
241.08        71.34908
241.54        72.63346
242.00        72.63637
242.46        76.50211
242.91         87.9375
243.37        108.4893
243.83        138.6551
244.28        164.2649
244.74        164.6259
245.20        141.0076
245.66        111.3976
246.11         91.2743
246.57        81.52604
247.03        77.06955
247.48        76.18922
247.94        76.58511
248.40        77.05522
248.85        78.04433
249.31        78.82381
249.77        77.88393
250.22        74.86697
250.68        69.03772
251.14        61.31265
251.59        56.67829
252.05        58.33515
252.51        64.67892
252.96        70.46565
253.42        71.05894
253.88        67.19999
254.33        61.15153
254.79        57.04017
255.25        58.17064
255.70        63.97278
256.16         72.5929
256.62        80.19875
257.07        81.09691
257.53        76.60732
257.99        70.34568
258.44        64.79916
258.90        62.18396
259.35        61.49582
259.81        61.92404
260.27        62.45164
260.72        62.01346
261.18        60.76968
261.63        58.95364
262.09        57.27787
262.55        55.95794
263.00        54.89863
263.46        54.09401
263.91        53.14445
264.37         51.8793
264.83         50.3012
265.28        48.53636
265.74        47.01024
266.19        45.94694
266.65        45.40604
267.11        45.16315
267.56        45.00325
268.02        44.59466
268.47        43.85311
268.93        42.93793
269.38        41.88779
269.84        40.81492
270.30        39.76792
270.75        38.70011
271.21        37.78064
271.66        37.21686
272.12         37.0111
272.57        37.05785
273.03        37.08936
273.48        36.66023
273.94        35.74539
274.39         34.4959
274.85        33.21504
275.31        32.19082
275.76        31.48133
276.22        31.01322
276.67        30.70412
277.13        30.52298
277.58        30.37296
278.04        30.27397
278.49        30.09971
278.95        29.76887
279.40        29.22784
279.86         28.5845
280.31        27.85032
280.77        27.14869
281.22        26.49051
281.68        25.90799
282.13        25.42881
282.59        25.16122
283.04        25.07375
283.50        25.15261
283.95         25.2804
284.41        25.27476
284.86         25.0955
285.32        24.82015
285.77        24.54283
286.22        24.45795
286.68        24.59563
287.13        24.85463
287.59         25.1556
288.04        25.33719
288.50        25.37704
288.95        25.30076
289.41         25.1754
289.86         25.0343
290.32        24.93638
290.77        24.87015
291.22        24.85943
291.68         24.9248
292.13         25.0762
292.59        25.34604
293.04        25.76829
293.50        26.40423
293.95        27.24554
294.40        28.26587
294.86        29.40393
295.31        30.55677
295.77         31.6976
296.22        32.83248
296.68        33.99313
297.13        35.22075
297.58        36.54015
298.04        37.94374
298.49        39.41842
298.95        40.96112
299.40        42.55427
299.85        44.20253
300.31        45.90897
300.76        47.65714
301.21        49.44365
301.67        51.27514
302.12         53.1031
302.58        54.93957
303.03        56.73748
303.48        58.51771
303.94        60.30468
304.39        62.07618
304.84        63.85848
305.30        65.66465
305.75        67.45438
306.20        69.25102
306.66        71.06277
307.11        72.84623
307.57        74.59579
308.02        76.20147
308.47        77.67342
308.93        79.04476
309.38        80.35952
309.83        81.79707
310.29        83.39156
310.74        85.08595
311.19        86.73964
311.65          88.094
312.10        89.06539
312.55        89.71976
313.00        90.24796
313.46        90.95628
313.91        91.89569
314.36        93.00873
314.82        94.11077
315.27        94.91595
315.72        95.33846
316.18        95.49995
316.63         95.5658
317.08        95.83698
317.53        96.39075
317.99        97.12685
318.44        97.90925
318.89        98.48648
319.35        98.78545
319.80        98.88933
320.25        98.91953
320.70        99.07108
321.16        99.39341
321.61        99.85741
322.06        100.3517
322.51        100.7062
322.97        100.8648
323.42        100.8925
323.87        100.9243
324.32        101.1964
324.78        101.7242
325.23        102.5041
325.68        103.2813
326.13        103.6485
326.59        103.5086
327.04        103.0105
327.49        102.4491
327.94         102.325
328.39        102.7573
328.85        103.5601
329.30        104.5617
329.75         105.207
330.20        105.3195
330.66        105.0387
331.11        104.6362
331.56        104.4699
332.01         104.665
332.46        105.0953
332.92        105.5921
333.37         106.034
333.82        106.2988
334.27        106.4764
334.72        106.6234
335.17        106.8075
335.63        107.0585
336.08        107.4137
336.53        107.8725
336.98        108.4846
337.43        109.2485
337.88        110.1171
338.34        111.0562
338.79        112.1252
339.24        113.2252
339.69        114.3144
340.14        115.1938
340.59        115.5663
341.05        115.4323
341.50        114.9093
341.95        114.3029
342.40          114.08
342.85        114.3706
343.30         115.048
343.75        115.9585
344.20        116.8292
344.66        117.5411
345.11         118.152
345.56        118.6317
346.01        118.9375
346.46        119.0943
346.91         119.124
347.36        119.0985
347.81        119.1573
348.26        119.3357
348.72        119.5852
349.17         119.927
349.62        120.4217
350.07         121.041
350.52         121.777
350.97        122.3798
351.42        122.4502
351.87        121.9398
352.32        120.9772
352.77        119.9718
353.22        119.5306
353.67        119.7716
354.13        120.5244
354.58        121.4023
355.03        121.7095
355.48        121.2684
355.93        120.2882
356.38           119.2
356.83        118.6523
357.28        118.7646
357.73        119.2987
358.18        119.8388
358.63        119.7267
359.08        118.8104
359.53        117.3422
359.98        115.6897
360.43        114.3762
360.88        113.5378
361.33        113.0136
361.78        112.6085
362.23        112.0227
362.68        111.1798
363.13        110.2012
363.58        109.2125
364.03        108.3844
364.48        107.7463
364.93        107.2075
365.38        106.6772
365.83        106.0329
366.28        105.2462
366.73        104.3793
367.18        103.4709
367.63         102.569
368.08        101.7013
368.53        100.8551
368.98        100.0716
369.43        99.41251
369.88        98.88252
370.33        98.46998
370.78        98.09357
371.23        97.61948
371.68        97.01268
372.13        96.29373
372.58        95.55741
373.03        94.96181
373.48        94.52827
373.93        94.19591
374.38        93.83725
374.83        93.25517
375.28         92.4207
375.72        91.40542
376.17        90.39028
376.62        89.53052
377.07        88.88634
377.52        88.42201
377.97        88.09416
378.42        87.84297
378.87        87.62762
379.32        87.42284
379.77        87.25381
380.22         87.1562
380.67        87.10523
381.11        87.10537
381.56        86.93233
382.01        86.33321
382.46        85.32757
382.91        84.08133
383.36        82.91746
383.81        82.26652
384.26        82.18098
384.71        82.49765
385.15        83.00662
385.60        83.32748
386.05         83.3232
386.50        83.09457
386.95        82.65085
387.40         82.0238
387.85         81.2826
388.29        80.39333
388.74         79.6052
389.19         79.0536
389.64        78.76292
390.09        78.69823
390.54        78.73697
390.98        78.64554
391.43        78.39587
391.88        78.02522
392.33        77.65313
392.78        77.39375
393.23        77.25103
393.67        77.30665
394.12        77.45943
394.57        77.01387
395.02        76.12796
395.47        75.78177
395.91        75.96803
396.36        75.81664
396.81        75.34578
397.26        75.08789
397.71         75.0265
398.15        74.92883
398.60        74.87275
399.05        74.65945
399.50         74.3655
399.95        74.56038
400.39        75.05926
400.84        74.70069
401.29        73.61465
401.74        73.09351
402.18        73.18273
402.63        72.93781
403.08          72.422
403.53        72.23769
403.97        72.39102
404.42        72.64206
404.87        72.83341
405.32          72.784
405.76        72.43939
406.21        71.88909
406.66        71.31003
407.11        70.98965
407.55        71.01414
408.00        71.26995
408.45        71.60758
408.90        71.74131
409.34        71.56756
409.79        71.15472
410.24        70.68058
410.68        70.40936
411.13        70.40762
411.58        70.58211
412.03        70.77768
412.47        70.75069
412.92        70.42722
413.37        69.93005
413.81        69.44651
414.26        69.30731
414.71        69.53996
415.15        70.06686
415.60         70.6719
416.05        71.05313
416.49        71.11044
416.94        70.92563
417.39        70.63951
417.83        70.45691
418.28        70.44931
418.73        70.55227
419.17        70.71408
419.62        70.85853
420.07         70.9399
420.51        70.95968
420.96        70.96905
421.41        70.93571
421.85        70.83146
422.30        70.86256
422.74        70.89349
423.19        70.52999
423.64        69.89066
424.08        69.73152
424.53        70.04741
424.98        70.22812
425.42        70.24468
425.87        70.48476
426.31        70.86723
426.76        70.91945
427.21        70.68722
427.65        70.54691
428.10         70.5058
428.54          70.509
428.99        70.61827
429.44        70.44835
429.88        70.22248
430.33        71.08666
430.77        72.54064
431.22        72.96532
431.66        72.33782
432.11        71.58122
432.56        71.01633
433.00        70.69715
433.45        70.84436
433.89        71.62799
434.34        72.25745
434.78        73.69141
435.23        71.72314
435.67        70.75746
436.12        71.16598
436.57        71.55545
437.01        72.06497
437.46        72.20155
437.90        71.98236
438.35        71.28638
438.79        71.25612
439.24        71.17618
439.68        71.31184
440.13        71.85915
440.57        72.67841
441.02        72.71346
441.46        72.11338
441.91        72.80214
442.35        74.23405
442.80        73.93895
443.24        72.32291
443.69        72.28778
444.13        73.63835
444.58        74.44144
445.02        73.74236
445.47        73.51157
445.91        73.64944
446.36        73.87553
446.80         74.1811
447.24        74.69349
447.69        75.24929
448.13        75.37141
448.58        75.12096
449.02        74.98402
449.47        75.01633
449.91        74.90583
450.36        74.70372
450.80        74.59705
451.25        74.62129
451.69        74.65688
452.13        74.70982
452.58        74.81337
453.02         74.9159
453.47        74.93735
453.91        74.84875
454.36        74.66413
454.80         74.4331
455.24        74.18755
455.69         73.9531
456.13        73.85277
456.58        73.86562
457.02        73.41943
457.46         72.7477
457.91         72.8539
458.35        73.47788
458.79        73.44225
459.24        72.77352
459.68        71.97194
460.13        71.32012
460.57        71.15182
461.01        71.62125
461.46        71.53676
461.90        72.39143
462.34        73.01916
462.79        72.49171
463.23         72.5343
463.68        72.66631
464.12        72.41896
464.56        71.78287
465.01         71.1115
465.45        70.54777
465.89        70.32732
466.34        70.35917
466.78        70.55462
467.22        70.92626
467.67         70.0042
468.11        70.43752
468.55        70.21314
468.99        70.11755
469.44        69.96377
469.88        69.78979
470.32        69.67709
470.77        69.61436
471.21        69.59209
471.65         69.5879
472.10        69.61205
472.54        69.63383
472.98        69.57866
473.42        69.43067
473.87        69.33937
474.31        69.23866
474.75        68.85089
475.20        68.34612
475.64        68.20081
476.08         68.5719
476.52        68.62267
476.97        68.35726
477.41        68.25306
477.85        68.37201
478.29        68.17297
478.74        67.97292
479.18        68.45788
479.62        68.38902
480.06        68.49068
480.50        68.32061
480.95         68.2765
481.39        68.41352
481.83        68.00681
482.27         67.6628
482.72        68.50664
483.16        68.11006
483.60        67.89975
484.04        68.22791
484.48        68.28523
484.93        68.26616
485.37        68.16388
485.81        67.94365
486.25        67.49053
486.69        69.60432
487.14        70.09589
487.58        67.95272
488.02        68.21867
488.46        67.26025
488.90        67.36411
489.34        68.68842
489.79        69.30079
490.23        68.53596
490.67        67.73447
491.11        66.99821
491.55        66.81398
491.99        67.10424
492.43        67.05508
492.88        66.66383
493.32        66.60267
493.76        66.87508
494.20         67.0825
494.64        67.18098
495.08        67.29766
495.52        67.40669
495.96        67.40475
496.41         67.2924
496.85        67.24242
497.29        67.15842
497.73         67.0432
498.17         66.1756
498.61        66.23388
499.05        66.84122
499.49        67.04779
499.93        66.60494
500.37        66.52003
500.82        66.74256
501.26        66.85763
501.70         66.8389
502.14        66.82764
502.58        66.86044
503.02        66.95361
503.46        67.11047
503.90        67.31375
504.34        67.45988
504.78        67.41673
505.22        67.16682
505.66        66.69654
506.10        66.19318
506.54        66.07627
506.98        66.30642
507.42        66.59174
507.86        66.57836
508.30        66.58765
508.74        66.74336
509.18        66.67907
509.62        66.50333
510.06        66.38756
510.50        66.36387
510.94        66.36578
511.38        66.38832
511.82        66.43509
512.26        66.49766
512.70        66.58878
513.14        66.67589
513.58        66.69711
514.02        66.64449
514.46        66.53302
514.90        66.41736
515.34        66.38995
515.78        66.46539
516.22        66.60721
516.66        66.75475
517.10        66.80989
517.54        66.74883
517.98        66.61147
518.42        66.42931
518.86        66.25247
519.30        66.10656
519.74        65.97732
520.18        65.89254
520.62        65.89305
521.06        65.98165
521.50        66.15513
521.93        66.35346
522.37        66.45332
522.81        66.43441
523.25        66.31635
523.69        66.18157
524.13        66.16578
524.57        66.28845
525.01        66.49884
525.45        66.69469
525.89        66.71128
526.32        66.51163
526.76        66.18335
527.20        65.81841
527.64        65.56253
528.08        65.46071
528.52        65.46452
528.96        65.55116
529.40        65.68513
529.83        65.83607
530.27        66.01733
530.71        66.17554
531.15        66.23105
531.59        66.17118
532.03        66.01187
532.46        65.80371
532.90         65.6796
533.34        65.65927
533.78        65.67419
534.22        65.68723
534.66        65.71938
535.09        65.70652
535.53        65.51689
535.97        65.20524
536.41        65.02563
536.85        65.00711
537.28        65.02171
537.72        65.05528
538.16        65.13601
538.60         65.2482
539.04        65.38101
539.47        65.49616
539.91        65.57771
540.35        65.60398
540.79        65.58077
541.22        65.52528
541.66        65.48861
542.10        65.47809
542.54        65.48763
542.97        65.48913
543.41        65.46978
543.85        65.41461
544.29        65.33495
544.72        65.25267
545.16        65.22765
545.60        65.25832
546.04        65.37452
546.47        65.52589
546.91        65.56408
547.35        65.51402
547.79        65.50932
548.22        65.57317
548.66        65.71989
549.10        65.92061
549.53        65.87033
549.97        65.64404
550.41        65.23561
550.84        65.26113
551.28        65.24082
551.72        65.26357
552.15        65.37201
552.59        65.61691
553.03        65.07769
553.46        65.70219
553.90        65.60838
554.34        65.32495
554.77        65.59928
555.21        65.19994
555.65        65.28269
556.08        65.42312
556.52         65.5097
556.96        65.49225
557.39        65.53934
557.83        65.62115
558.27        65.41181
558.70        64.99667
559.14        64.82533
559.57        64.89836
560.01        64.97562
560.45        65.03397
560.88         65.1456
561.32         65.2999
561.75        65.47078
562.19        65.62155
562.63        65.47654
563.06        65.14666
563.50        65.17908
563.93        65.46601
564.37        65.57251
564.80        65.48613
565.24        65.28318
565.68        64.87856
566.11        65.47972
566.55        64.77723
566.98        64.68196
567.42        64.62931
567.85        64.91357
568.29        65.42389
568.72        65.75201
569.16         65.9676
569.60        65.98586
570.03        66.01299
570.47        66.44075
570.90        66.41859
571.34        65.78346
571.77        66.40498
572.21        66.33835
572.64        66.03011
573.08        66.80019
573.51        65.99695
573.95        66.22001
574.38         66.7223
574.82        66.81149
