SpectraSmart Spectrum 2.9.0.0
--------- Device Information -----------
Spectrum Name :  反射率_0
Saving Time :  2024/04/27 00:41:44
Spectro-Module Model Name : SE2030-DUVN
Spectro-Module Serial Number : OS361AC55029948
Wavelength Start : 200
Wavelength End : 1025
Wavelength Unit : Wavelength(nm)
Spectrum Unit : Reflectance(%)
-----------Spectrum Setting ------------
Integration Time : 20ms
Average : 10
Boxcar : 0
Background removal :  enabled
linearity correction :  enabled
SC :  disabled
Intensity correction :  disabled
DWT denoise :  enabled
savitzky-golay :  disabled
FFT :  disabled
Running average :  disabled
Kalman :  disabled
High pass :  disabled
---------------BEGIN--------------------
Wavelength(nm)             Reflectance(%)
200.29               0
200.75         34.9413
201.21        33.64398
201.67        32.83979
202.13        32.30999
202.58        31.87624
203.04        31.89564
203.50        32.65894
203.96        34.53942
204.42        37.52118
204.88        41.07322
205.34        44.35636
205.80        46.26145
206.26        46.39976
206.72         45.1517
207.18        42.98837
207.64        40.00018
208.10          35.953
208.55        30.22003
209.01        22.98516
209.47        19.74313
209.93        23.22018
210.39        29.72266
210.85        35.45063
211.31        39.39963
211.77        42.78753
212.23        47.45831
212.69        57.93081
213.14        81.00052
213.60        88.77509
214.06        79.32389
214.52        69.73432
214.98        63.04432
215.44        57.20141
215.90        50.47663
216.36        44.11098
216.81        40.26466
217.27        39.97654
217.73        44.05045
218.19        50.68468
218.65        51.04336
219.11         43.5322
219.57        34.39443
220.02        29.74895
220.48         33.0182
220.94        44.16485
221.40        64.72436
221.86        93.60263
222.32        110.7206
222.77         100.024
223.23        75.59292
223.69        52.53185
224.15        38.93388
224.61        33.02305
225.06        30.80021
225.52        30.63681
225.98         31.0722
226.44        31.61492
226.90        32.72038
227.36         33.9432
227.81        34.34769
228.27        33.85612
228.73        32.55683
229.19        31.19679
229.65        30.71956
230.10        31.18232
230.56        32.35752
231.02        33.51416
231.48        33.50303
231.93        32.20193
232.39         30.2956
232.85        28.70217
233.31        28.64174
233.77        30.16843
234.22        32.85357
234.68        35.78869
235.14        37.65617
235.60        38.09156
236.05        37.48319
236.51        36.40461
236.97        36.04808
237.43        36.92995
237.88         38.7264
238.34        41.13003
238.80        43.91146
239.26        47.15959
239.71        51.68993
240.17          57.292
240.63        63.02464
241.08        68.04891
241.54        71.14506
242.00        73.97202
242.46        81.13654
242.91        96.27789
243.37         122.263
243.83        158.5186
244.28        184.2822
244.74        173.6898
245.20        131.2849
245.66        86.18773
246.11        61.54734
246.57         56.7639
247.03        64.25217
247.48         77.3176
247.94         83.7291
248.40         81.4194
248.85        76.22312
249.31        71.74905
249.77        69.49937
250.22        69.22003
250.68        69.74007
251.14        70.90865
251.59        72.50596
252.05         74.1434
252.51        76.15411
252.96        77.10364
253.42        76.17345
253.88        73.71375
254.33         70.0378
254.79        67.60833
255.25         68.0831
255.70        71.05373
256.16        75.81113
256.62        79.66553
257.07        78.76887
257.53        74.54214
257.99        69.39553
258.44        65.25011
258.90        64.05883
259.35         64.7328
259.81        66.53718
260.27        68.12874
260.72        67.96452
261.18        66.30434
261.63        63.65192
262.09        61.16962
262.55        59.50024
263.00        58.54304
263.46        58.13227
263.91        57.60867
264.37        56.49395
264.83        54.76204
265.28        52.66405
265.74        50.83975
266.19        49.76176
266.65        49.50556
267.11        49.72773
267.56        49.99777
268.02        49.65605
268.47        48.54292
268.93        46.93348
269.38        45.07401
269.84        43.39187
270.30        42.01825
270.75        40.83101
271.21         39.8524
271.66        39.05324
272.12        38.40129
272.57        37.89312
273.03        37.43107
273.48        36.82874
273.94        36.09729
274.39        35.25043
274.85        34.42794
275.31        33.70513
275.76        33.08123
276.22        32.55251
276.67         32.0753
277.13        31.67622
277.58        31.29471
278.04        30.94997
278.49        30.54884
278.95        30.06528
279.40        29.45622
279.86        28.81471
280.31        28.14235
280.77        27.54113
281.22        27.00124
281.68        26.55259
282.13        26.18217
282.59        25.94588
283.04        25.81252
283.50        25.79052
283.95        25.81773
284.41        25.80296
284.86        25.72636
285.32        25.63417
285.77        25.57384
286.22         25.6779
286.68        25.95748
287.13        26.32128
287.59        26.70691
288.04        26.97544
288.50        27.10966
288.95        27.12721
289.41        27.06997
289.86        26.93391
290.32        26.78262
290.77        26.62164
291.22        26.53319
291.68        26.62051
292.13        26.90694
292.59        27.40518
293.04        28.08478
293.50        28.90145
293.95        29.82852
294.40        30.87953
294.86        32.06294
295.31        33.38528
295.77        34.83961
296.22         36.3791
296.68          37.985
297.13        39.62066
297.58        41.28466
298.04        42.99852
298.49        44.73474
298.95        46.47103
299.40        48.19471
299.85        49.90776
300.31        51.68301
300.76        53.61266
301.21        55.70314
301.67        57.92457
302.12        60.12039
302.58        62.14206
303.03        63.91702
303.48        65.54011
303.94        67.13725
304.39        68.82948
304.84        70.67947
305.30        72.64075
305.75        74.63728
306.20        76.64508
306.66        78.64796
307.11        80.62344
307.57        82.51727
308.02        84.12942
308.47        85.47626
308.93        86.62061
309.38        87.72005
309.83         89.1433
310.29           90.95
310.74         93.0135
311.19        95.06306
311.65        96.62226
312.10        97.55077
312.55        97.99312
313.00        98.22579
313.46         98.6839
313.91        99.46085
314.36         100.459
314.82        101.4989
315.27        102.3082
315.72        102.7897
316.18        103.0695
316.63        103.2559
317.08        103.5558
317.53        104.0312
317.99        104.6066
318.44        105.2048
318.89        105.6787
319.35        105.9795
319.80        106.1493
320.25        106.2757
320.70        106.4979
321.16        106.8453
321.61        107.3209
322.06        107.7882
322.51        108.0364
322.97        108.0114
323.42        107.7793
323.87        107.5736
324.32        107.7929
324.78        108.4799
325.23        109.6034
325.68        110.7448
326.13        111.2081
326.59        110.8296
327.04         109.845
327.49        108.7635
327.94         108.423
328.39        109.0214
328.85        110.2777
329.30        111.8333
329.75        112.7741
330.20        112.8098
330.66        112.1883
331.11        111.3609
331.56        110.9704
332.01        111.2222
332.46        111.8888
332.92        112.6919
333.37        113.3345
333.82        113.6277
334.27        113.7407
334.72        113.7538
335.17        113.7657
335.63        113.8341
336.08         113.971
336.53         114.258
336.98        114.8944
337.43        115.8922
337.88        117.1638
338.34        118.5016
338.79        119.6686
339.24         120.493
339.69        121.0297
340.14        121.2628
340.59        121.2017
341.05         120.942
341.50        120.5088
341.95        120.1185
342.40        120.0959
342.85        120.5149
343.30        121.2923
343.75         122.267
344.20        123.1452
344.66        123.8131
345.11        124.3268
345.56        124.6842
346.01        124.9024
346.46        125.0217
346.91        125.0447
347.36        125.0415
347.81        125.1451
348.26        125.3731
348.72        125.6689
349.17        126.0052
349.62        126.3673
350.07        126.7182
350.52        127.0824
350.97         127.268
351.42        126.9739
351.87        126.1942
352.32        125.0462
352.77        123.9276
353.22        123.4187
353.67        123.6172
354.13        124.3464
354.58        125.2122
355.03        125.5061
355.48        125.0363
355.93        124.0068
356.38         122.814
356.83        122.0573
357.28        121.8598
357.73        122.0105
358.18        122.1662
358.63        121.7917
359.08        120.7666
359.53        119.3002
359.98        117.7073
360.43        116.4255
360.88        115.5583
361.33        114.9698
361.78        114.4516
362.23        113.6836
362.68        112.6028
363.13        111.3423
363.58        110.0874
364.03        109.1042
364.48        108.4409
364.93        107.9797
365.38        107.5811
365.83        107.0366
366.28        106.2867
366.73         105.415
367.18        104.4692
367.63        103.5144
368.08        102.5884
368.53        101.6681
368.98        100.8062
369.43        100.0893
369.88        99.52127
370.33        99.07764
370.78        98.66195
371.23        98.11179
371.68         97.3847
372.13        96.51969
372.58        95.59936
373.03         94.7616
373.48          94.037
373.93        93.37399
374.38        92.71735
374.83        91.98469
375.28        91.16206
375.72        90.28269
376.17        89.42473
376.62        88.58451
377.07        87.79249
377.52        87.06802
377.97        86.45144
378.42        86.02433
378.87         85.7843
379.32        85.65009
379.77        85.60455
380.22        85.62427
380.67        85.65873
381.11         85.7329
381.56        85.59605
382.01        84.94699
382.46        83.80546
382.91        82.35297
383.36        80.97872
383.81        80.20698
384.26        80.10808
384.71        80.50173
385.15        81.12117
385.60        81.48702
386.05        81.43772
386.50        81.10178
386.95        80.55556
387.40        79.93314
387.85        79.31427
388.29        78.61847
388.74        78.00993
389.19          77.519
389.64        77.14904
390.09        76.89325
390.54        76.70025
390.98        76.45674
391.43        76.16986
391.88        75.84645
392.33        75.52734
392.78        75.23633
393.23        74.97294
393.67        74.79174
394.12        74.68724
394.57         74.2784
395.02        73.65746
395.47        73.35667
395.91        73.38012
396.36         73.2327
396.81        72.92966
397.26        72.78342
397.71        72.72105
398.15        72.50993
398.60        72.22598
399.05        71.73945
399.50        71.21826
399.95        71.21825
400.39        71.62988
400.84        71.60166
401.29        71.09385
401.74        70.73655
402.18        70.54366
402.63        70.06703
403.08         69.4502
403.53        69.11646
403.97        69.10564
404.42        69.29633
404.87        69.51405
405.32        69.47489
405.76         69.1112
406.21        68.57944
406.66        68.04507
407.11        67.71137
407.55        67.70033
408.00        68.01379
408.45        68.48274
408.90        68.76402
409.34        68.66805
409.79        68.06548
410.24        67.22484
410.68        66.76052
411.13          66.766
411.58        66.95347
412.03        67.14805
412.47        67.15759
412.92        66.89378
413.37        66.46564
413.81        66.02614
414.26        65.85142
414.71        65.96552
415.15        66.30178
415.60        66.70705
416.05        66.99176
416.49        67.08537
416.94        67.03696
417.39        66.91461
417.83        66.80773
418.28        66.75813
418.73        66.73784
419.17        66.74308
419.62        66.77583
420.07        66.81736
420.51        66.84381
420.96        66.88384
421.41         66.8831
421.85        66.80363
422.30        66.83678
422.74        66.85724
423.19        66.52114
423.64        65.92907
424.08         65.7313
424.53        65.93341
424.98        66.04666
425.42        66.06078
425.87         66.2663
426.31        66.57578
426.76        66.65382
427.21        66.47618
427.65        66.12704
428.10        65.73033
428.54        65.58333
428.99         65.7523
429.44        65.85745
429.88         65.9491
430.33        66.51683
430.77        67.24766
431.22        67.59697
431.66        67.44307
432.11        66.69439
432.56        65.71561
433.00        65.52995
433.45        66.29664
433.89        67.19517
434.34        67.49802
434.78        68.32261
435.23        67.41296
435.67        65.52313
436.12         66.0641
436.57        66.21387
437.01        66.79575
437.46        67.09711
437.90        67.17282
438.35        65.86082
438.79         66.3677
439.24        66.16186
439.68        66.13726
440.13        66.43484
440.57        66.98962
441.02        66.98035
441.46        66.52478
441.91        67.17462
442.35        68.44757
442.80        68.35191
443.24        67.14842
443.69        67.04848
444.13         67.9679
444.58        68.30341
445.02        68.03637
445.47        67.68844
445.91        68.03091
446.36        68.19851
446.80        68.38686
447.24        68.64292
447.69        68.91571
448.13        69.09372
448.58        69.16035
449.02        69.11913
449.47        69.01422
449.91        68.89462
450.36        68.80525
450.80        68.71307
451.25        68.64654
451.69        68.59596
452.13        68.57013
452.58        68.55821
453.02        68.54938
453.47        68.52807
453.91        68.47567
454.36        68.42365
454.80        68.37202
455.24        68.10231
455.69        67.59589
456.13        67.28316
456.58        67.39491
457.02        66.13711
457.46        66.71725
457.91        66.83182
458.35        67.15814
458.79        67.08409
459.24        66.62431
459.68        65.94484
460.13        65.29774
460.57        64.97344
461.01        65.07411
461.46        65.33257
461.90        65.74094
462.34        66.19635
462.79        66.28313
463.23        66.31081
463.68        66.12149
464.12         65.9453
464.56        65.72016
465.01        64.92719
465.45         63.8303
465.89        63.69041
466.34        64.31187
466.78        64.41705
467.22        63.97448
467.67         63.6493
468.11        63.65945
468.55        63.72429
468.99        63.80625
469.44        63.71613
469.88         63.4512
470.32        63.19169
470.77        62.99384
471.21        62.84753
471.65        62.75943
472.10        62.73803
472.54        62.76305
472.98        62.77385
473.42        62.74043
473.87        62.79623
474.31        62.83857
474.75        62.51609
475.20        61.95811
475.64        61.77262
476.08        61.97454
476.52        61.91236
476.97        61.53376
477.41        61.74407
477.85        61.77475
478.29        61.53579
478.74         62.0465
479.18        62.09484
479.62        61.73112
480.06        61.61005
480.50        61.65113
480.95        61.66818
481.39        61.61221
481.83         61.5882
482.27        61.32796
482.72        61.49091
483.16        61.50127
483.60        61.14781
484.04        61.47799
484.48        61.65862
484.93        61.85877
485.37        61.82314
485.81        61.03461
486.25        61.23507
486.69        63.02666
487.14         63.8352
487.58        61.45434
488.02        61.85825
488.46        60.47052
488.90        60.36098
489.34        61.19002
489.79         62.1015
490.23        61.75983
490.67        61.24264
491.11        60.47819
491.55        60.33303
491.99        60.73563
492.43        60.68658
492.88        60.18924
493.32        59.97756
493.76        60.07722
494.20        60.12644
494.64        60.10059
495.08        60.09283
495.52        60.09867
495.96        60.11522
496.41        60.12444
496.85        60.12096
497.29        59.99625
497.73        59.93192
498.17        59.25682
498.61        59.14307
499.05        59.37266
499.49        59.66745
499.93        59.70084
500.37        59.76537
500.82        59.84139
501.26        59.57858
501.70        59.82445
502.14        59.84887
502.58        59.89022
503.02        59.95214
503.46        60.04376
503.90        60.02859
504.34        60.13452
504.78         60.0544
505.22        59.86411
505.66        59.60117
506.10        59.35666
506.54        59.21744
506.98        59.19896
507.42        59.35236
507.86        59.63647
508.30        59.53699
508.74        59.72292
509.18        59.65659
509.62        59.56774
510.06        59.47306
510.50        59.39378
510.94        59.31097
511.38        59.22843
511.82        59.17436
512.26        59.15296
512.70         59.1663
513.14         59.2022
513.58        59.23452
514.02         59.2554
514.46        59.26702
514.90        59.27956
515.34        59.31272
515.78        59.36538
516.22        59.42331
516.66        59.46722
517.10        59.46781
517.54        59.42174
517.98        59.34783
518.42        59.25705
518.86        59.16651
519.30         59.0872
519.74        59.01237
520.18        58.96883
520.62         58.9962
521.06        59.09549
521.50        59.25745
521.93        59.42219
522.37        59.47157
522.81        59.39117
523.25        59.21156
523.69        59.01559
524.13        58.93585
524.57        58.99608
525.01        59.14709
525.45        59.31321
525.89        59.37048
526.32        59.28262
526.76          59.116
527.20        58.90913
527.64        58.72582
528.08        58.59401
528.52        58.48927
528.96         58.4374
529.40        58.48106
529.83          58.611
530.27        58.81759
530.71        59.01764
531.15        59.08118
531.59        58.98381
532.03        58.76439
532.46        58.49604
532.90        58.33923
533.34        58.32242
533.78        58.36614
534.22        58.42603
534.66        58.50494
535.09        58.53826
535.53        58.41574
535.97         58.1748
536.41        58.02394
536.85        57.98828
537.28        57.95552
537.72        57.93929
538.16        58.00933
538.60        58.15784
539.04        58.35979
539.47        58.54489
539.91        58.64195
540.35        58.62201
540.79        58.51283
541.22        58.36077
541.66        58.26124
542.10        58.23466
542.54         58.2567
542.97         58.2938
543.41         58.3195
543.85        58.31352
544.29        58.29572
544.72        58.26392
545.16        58.24112
545.60        58.22034
546.04        58.21757
546.47        58.23756
546.91        58.24282
547.35        58.24804
547.79        58.34432
548.22        58.49077
548.66        58.52982
549.10        58.51179
549.53        58.47914
549.97        58.44958
550.41        58.29633
550.84        58.08625
551.28         58.0105
551.72        58.03861
552.15        58.07751
552.59        58.17427
553.03        57.84821
553.46        58.20041
553.90         58.1906
554.34        58.13658
554.77        58.05776
555.21        58.00893
555.65        58.04456
556.08        58.15527
556.52        58.28433
556.96        58.36867
557.39        58.46874
557.83        58.52241
558.27        58.22042
558.70        57.68784
559.14        57.47124
559.57        57.57569
560.01         57.6766
560.45        57.71745
560.88        57.79005
561.32        57.89684
561.75        57.95687
562.19          57.993
562.63        57.98783
563.06        57.93611
563.50        57.92716
563.93        57.93954
564.37        57.76155
564.80        57.91469
565.24        57.86243
565.68        57.62684
566.11         58.2465
566.55        57.62861
566.98        57.51068
567.42        57.39799
567.85         57.4469
568.29        57.67176
568.72          58.053
569.16        58.58023
569.60        58.76551
570.03        58.75171
570.47        58.95272
570.90        59.19895
571.34        58.39058
571.77        58.97174
572.21         59.2841
572.64        59.15432
573.08        59.43637
573.51        58.53079
573.95         58.5724
574.38        59.26991
574.82        59.02724
