SpectraSmart Spectrum 2.9.0.0
--------- Device Information -----------
Spectrum Name :  反射率_0
Saving Time :  2024/04/27 00:41:01
Spectro-Module Model Name : SE2030-DUVN
Spectro-Module Serial Number : OS361AC55029948
Wavelength Start : 200
Wavelength End : 1025
Wavelength Unit : Wavelength(nm)
Spectrum Unit : Reflectance(%)
-----------Spectrum Setting ------------
Integration Time : 20ms
Average : 10
Boxcar : 0
Background removal :  enabled
linearity correction :  enabled
SC :  disabled
Intensity correction :  disabled
DWT denoise :  enabled
savitzky-golay :  disabled
FFT :  disabled
Running average :  disabled
Kalman :  disabled
High pass :  disabled
---------------BEGIN--------------------
Wavelength(nm)             Reflectance(%)
200.29               0
200.75        28.61089
201.21        31.49531
201.67        34.72036
202.13        37.03116
202.58        38.37264
203.04        39.55112
203.50         41.3164
203.96        44.77118
204.42        50.18236
204.88         56.8983
205.34        62.62221
205.80        64.13963
206.26        61.10468
206.72        54.95705
207.18        49.00023
207.64         45.8045
208.10        45.33395
208.55        47.63294
209.01        51.01297
209.47        50.12056
209.93        44.31759
210.39        38.13664
210.85        34.57535
211.31        34.88402
211.77        39.59734
212.23        52.06905
212.69        85.57287
213.14        148.8354
213.60        157.7131
214.06         121.769
214.52        93.58459
214.98        78.37687
215.44        68.70554
215.90          59.409
216.36        50.64218
216.81        43.52334
217.27        38.38326
217.73        35.42594
218.19        33.21809
218.65        28.55124
219.11        23.03217
219.57        19.37695
220.02        19.07578
220.48        23.20947
220.94        32.25079
221.40        48.01762
221.86        70.48221
222.32        86.28678
222.77        82.79913
223.23         68.2729
223.69        53.47408
224.15        44.89506
224.61        41.51765
225.06        40.45752
225.52        40.51141
225.98        40.39108
226.44        39.89319
226.90        39.62352
227.36         39.5807
227.81        39.62078
228.27        39.78092
228.73        39.71484
229.19        39.81085
229.65        40.66837
230.10        42.18966
230.56        44.19503
231.02        45.67353
231.48        45.04115
231.93        42.28925
232.39        38.53263
232.85        35.05913
233.31        33.51424
233.77          34.041
234.22        36.04395
234.68         38.7646
235.14        41.13803
235.60        42.77386
236.05        44.02723
236.51        44.88372
236.97        45.28784
237.43        45.29201
237.88        44.82515
238.34        44.28877
238.80        44.71197
239.26        46.56979
239.71        50.35603
240.17        55.80411
240.63        61.65857
241.08        66.85372
241.54          70.606
242.00        73.98057
242.46        80.16927
242.91        91.95797
243.37        110.9002
243.83        136.7677
244.28        155.8982
244.74        150.2145
245.20        122.3182
245.66        91.87236
246.11        74.60824
246.57        70.44852
247.03        74.19197
247.48        81.09121
247.94         82.9752
248.40        79.10895
248.85        73.61842
249.31        68.99174
249.77        65.76682
250.22        63.36261
250.68        60.78136
251.14        57.83061
251.59        55.40232
252.05        54.77433
252.51         56.2518
252.96        58.32412
253.42        59.70334
253.88        60.23669
254.33        59.88915
254.79        60.38358
255.25        62.96152
255.70        67.27798
256.16        72.75251
256.62        76.87824
257.07        76.01994
257.53        71.72273
257.99        66.52654
258.44         62.2578
258.90        60.72771
259.35        60.97095
259.81        62.34445
260.27        63.81356
260.72        64.21446
261.18        63.64019
261.63        62.26344
262.09        60.89557
262.55         59.8586
263.00        59.06806
263.46         58.5381
263.91        57.72934
264.37         56.3132
264.83        54.33073
265.28        52.00996
265.74        50.02806
266.19        48.90942
266.65        48.73134
267.11        49.15285
267.56        49.70098
268.02        49.62848
268.47        48.75127
268.93        47.36034
269.38        45.73231
269.84        44.35283
270.30        43.34853
270.75        42.54132
271.21        41.91398
271.66        41.39061
272.12        40.91685
272.57        40.50193
273.03        40.02181
273.48        39.24765
273.94        38.21873
274.39        36.99768
274.85        35.81597
275.31        34.86195
275.76         34.1553
276.22        33.65668
276.67        33.28102
277.13        32.99474
277.58        32.70829
278.04        32.45181
278.49         32.1142
278.95        31.64797
279.40        31.00974
279.86        30.30247
280.31        29.54929
280.77        28.89234
281.22        28.32838
281.68        27.87631
282.13         27.5139
282.59        27.28962
283.04        27.16015
283.50        27.12997
283.95        27.12447
284.41        27.03409
284.86        26.84108
285.32        26.61203
285.77        26.39643
286.22         26.3284
286.68        26.42787
287.13        26.60454
287.59        26.84016
288.04        27.06253
288.50        27.25494
288.95        27.40464
289.41        27.47844
289.86        27.36022
290.32        27.09748
290.77        26.73768
291.22        26.42516
291.68        26.35712
292.13        26.57927
292.59        27.06815
293.04        27.76608
293.50        28.58832
293.95        29.48693
294.40        30.48449
294.86        31.57952
295.31         32.7597
295.77        34.02229
296.22        35.33447
296.68        36.69107
297.13        38.08108
297.58        39.51177
298.04        40.99035
298.49         42.5155
298.95        44.10427
299.40        45.73866
299.85        47.40674
300.31        49.10252
300.76         50.7952
301.21         52.4853
301.67        54.20318
302.12        55.89882
302.58        57.58179
303.03        59.21635
303.48        60.83011
303.94        62.49631
304.39        64.26241
304.84        66.15122
305.30        68.13666
305.75         70.0993
306.20        71.94441
306.66        73.65849
307.11        75.24479
307.57        76.74509
308.02        78.12008
308.47        79.41097
308.93        80.62995
309.38        81.84325
309.83        83.26527
310.29          84.924
310.74        86.75246
311.19        88.54344
311.65        89.92536
312.10        90.79267
312.55        91.24644
313.00        91.54961
313.46         92.1208
313.91        93.03716
314.36        94.20667
314.82        95.40163
315.27        96.26409
315.72        96.68543
316.18        96.81355
316.63        96.83057
317.08         97.0629
317.53        97.59367
317.99        98.30252
318.44        99.05407
318.89        99.60321
319.35         99.8735
319.80        99.95198
320.25        99.93582
320.70        99.97598
321.16        100.1247
321.61        100.3799
322.06        100.6792
322.51        100.9338
322.97        101.1065
323.42        101.2256
323.87        101.4034
324.32        101.8386
324.78        102.5197
325.23        103.4525
325.68        104.3239
326.13        104.6287
326.59        104.2655
327.04        103.4228
327.49        102.5133
327.94        102.2204
328.39         102.708
328.85        103.7449
329.30         105.079
329.75        105.9947
330.20        106.2476
330.66        106.0119
331.11        105.5845
331.56         105.372
332.01        105.5181
332.46        105.8688
332.92        106.2622
333.37        106.5997
333.82        106.7712
334.27        106.8875
334.72        106.9881
335.17        107.1013
335.63        107.2506
336.08        107.4748
336.53        107.8311
336.98        108.4665
337.43        109.3879
337.88         110.513
338.34        111.6849
338.79        112.7588
339.24        113.5894
339.69        114.1997
340.14         114.539
340.59        114.5535
341.05        114.3156
341.50        113.8792
341.95        113.4445
342.40        113.3118
342.85        113.5596
343.30        114.1023
343.75        114.8535
344.20        115.6453
344.66        116.3843
345.11        117.0929
345.56        117.6521
346.01        117.8868
346.46        117.8063
346.91         117.485
347.36        117.1221
347.81        117.0517
348.26        117.3373
348.72        117.8491
349.17        118.4754
349.62         119.066
350.07        119.5379
350.52        119.9597
350.97        120.1487
351.42        119.8206
351.87        118.9817
352.32        117.7286
352.77        116.5025
353.22        115.9559
353.67        116.1974
354.13        117.0485
354.58        118.0356
355.03        118.3103
355.48         117.667
355.93        116.3658
356.38        114.9313
356.83         114.157
357.28        114.1949
357.73        114.7535
358.18        115.3724
358.63        115.3217
359.08        114.4146
359.53        112.9237
359.98         111.202
360.43        109.7461
360.88        108.7007
361.33         107.922
361.78         107.257
362.23        106.4783
362.68        105.5348
363.13        104.5303
363.58        103.5864
364.03        102.8607
364.48        102.3656
364.93        102.0067
365.38        101.6472
365.83        101.0919
366.28        100.2932
366.73        99.32452
367.18        98.27306
367.63        97.27063
368.08        96.36681
368.53        95.52996
368.98         94.7597
369.43        94.04909
369.88        93.38803
370.33        92.78883
370.78        92.21909
371.23        91.62362
371.68        90.98736
372.13        90.30682
372.58        89.62424
373.03        89.01292
373.48        88.47614
373.93         87.9843
374.38        87.45816
374.83        86.77858
375.28        85.93449
375.72        84.96474
376.17        84.01772
376.62        83.20811
377.07        82.57996
377.52        82.11462
377.97        81.75764
378.42        81.43048
378.87        81.10021
379.32        80.75187
379.77        80.45495
380.22        80.31015
380.67        80.30483
381.11        80.42552
381.56        80.40815
382.01        79.91875
382.46        78.94471
382.91        77.66295
383.36        76.43652
383.81        75.75359
384.26        75.68264
384.71        76.05769
385.15        76.61433
385.60        76.88695
386.05        76.73043
386.50        76.27325
386.95        75.64576
387.40        75.06072
387.85        74.59412
388.29        74.13054
388.74        73.73588
389.19        73.31485
389.64        72.85284
390.09        72.38836
390.54        71.94316
390.98        71.52883
391.43        71.19049
391.88        70.90226
392.33        70.67377
392.78        70.45234
393.23        70.21284
393.67        70.08707
394.12        70.08417
394.57        69.57061
395.02        69.07982
395.47        68.81959
395.91        68.89375
396.36        68.72799
396.81        68.34136
397.26        68.08174
397.71         67.9165
398.15        67.70175
398.60        67.51966
399.05        67.13532
399.50        66.69335
399.95        66.89325
400.39        67.52988
400.84        67.35805
401.29        66.43289
401.74        65.90777
402.18        65.85839
402.63        65.59242
403.08        65.16751
403.53        64.96616
403.97        64.99456
404.42        65.14806
404.87        65.29862
405.32         65.2362
405.76         64.9166
406.21        64.45077
406.66        63.95309
407.11        63.63383
407.55        63.57227
408.00        63.58435
408.45        63.62905
408.90         63.8616
409.34        64.09727
409.79        63.77973
410.24        63.07523
410.68        62.71035
411.13        62.74799
411.58        62.79955
412.03        62.76833
412.47        62.67398
412.92        62.47364
413.37        62.20238
413.81         61.9388
414.26        61.85025
414.71        61.93877
415.15        62.18117
415.60        62.46469
416.05        62.65977
416.49        62.72256
416.94        62.68052
417.39         62.5956
417.83         62.5525
418.28        62.58054
418.73        62.64843
419.17        62.72771
419.62        62.77862
420.07        62.77493
420.51        62.70979
420.96        62.62734
421.41        62.50588
421.85        62.32931
422.30        62.27456
422.74        62.23448
423.19         61.9123
423.64        61.38932
424.08        61.23206
424.53        61.45112
424.98         61.5998
425.42        61.65671
425.87        61.95184
426.31        62.34721
426.76        62.27503
427.21          61.786
427.65        61.39402
428.10        61.21206
428.54        61.14342
428.99        61.25159
429.44        61.40565
429.88        61.61915
430.33        62.24097
430.77        62.96525
431.22        63.18337
431.66        62.85851
432.11        62.29115
432.56        61.71783
433.00        61.53152
433.45        61.89364
433.89        62.46384
434.34        62.64413
434.78         63.7427
435.23        62.81865
435.67        61.18947
436.12        61.30764
436.57        61.28529
437.01        61.81824
437.46        62.03061
437.90        61.87254
438.35        61.33354
438.79        61.70296
439.24        61.75742
439.68        61.83421
440.13        61.98738
440.57        62.27109
441.02         62.4337
441.46        62.45308
441.91        63.09941
442.35        63.94029
442.80        63.43639
443.24        61.96035
443.69        61.87014
444.13        63.05058
444.58        63.48286
445.02        63.10087
445.47          63.073
445.91        63.42658
446.36        63.67773
446.80        63.79789
447.24         63.9149
447.69        64.00489
448.13         64.0122
448.58        63.95197
449.02        63.80859
449.47        63.64411
449.91        63.53837
450.36        63.52838
450.80        63.56871
451.25        63.64277
451.69        63.66959
452.13        63.64519
452.58        63.59033
453.02        63.51349
453.47        63.43555
453.91        63.35361
454.36        63.26121
454.80        63.15888
455.24        62.98809
455.69        62.75027
456.13        62.60667
456.58        62.57701
457.02        62.12255
457.46        61.58274
457.91        61.77379
458.35        62.45928
458.79        62.48163
459.24        61.82412
459.68        61.04354
460.13        60.43416
460.57        60.13235
461.01        60.23836
461.46        60.59925
461.90        60.99298
462.34        61.54548
462.79         60.9018
463.23        61.01793
463.68         61.3673
464.12        61.30163
464.56        60.78271
465.01        60.05325
465.45        59.35365
465.89        59.30752
466.34        59.73999
466.78        59.97974
467.22         59.9614
467.67        59.20755
468.11        59.00664
468.55        58.91834
468.99        59.20251
469.44        59.15753
469.88        58.77205
470.32        58.49604
470.77        58.36926
471.21        58.24685
471.65        58.12878
472.10        58.06692
472.54        58.04693
472.98        58.02883
473.42        57.98974
473.87        58.01415
474.31        58.03006
474.75        57.79812
475.20        57.40881
475.64        57.32225
476.08         57.5351
476.52        57.42371
476.97        56.90929
477.41        57.02852
477.85        56.99992
478.29        56.42986
478.74        57.04931
479.18        57.50956
479.62        57.01199
480.06        56.99257
480.50        57.01704
480.95        57.09179
481.39        57.20526
481.83        56.63923
482.27        56.64415
482.72         56.8487
483.16        56.54735
483.60        56.56071
484.04        56.57809
484.48        56.82046
484.93         57.1622
485.37        56.90925
485.81         56.9264
486.25        56.59661
486.69        59.35496
487.14        59.50626
487.58        56.75049
488.02        57.32556
488.46        55.96756
488.90        55.55076
489.34        57.06483
489.79        57.27852
490.23        56.73463
490.67        56.16232
491.11        55.78671
491.55        55.63201
491.99         55.6556
492.43        55.51456
492.88        55.22122
493.32        55.20328
493.76        55.38333
494.20         55.5225
494.64        55.55896
495.08         55.6255
495.52        55.70849
495.96        55.65016
496.41        55.49612
496.85        55.56779
497.29        55.70493
497.73        55.68666
498.17        54.88293
498.61        54.66808
499.05        54.85822
499.49        55.03472
499.93        54.94474
500.37        55.00003
500.82        55.15389
501.26        55.12952
501.70        55.34642
502.14        55.36239
502.58        55.32708
503.02        55.32309
503.46        55.36094
503.90        55.39604
504.34        55.39044
504.78        55.30557
505.22        55.13068
505.66        54.91565
506.10        54.73423
506.54        54.60634
506.98          54.531
507.42        54.84409
507.86        54.84817
508.30        54.94381
508.74        54.91338
509.18        54.80816
509.62        54.66256
510.06        54.54688
510.50         54.4897
510.94        54.45917
511.38         54.4561
511.82        54.48241
512.26        54.53005
512.70        54.60256
513.14        54.66793
513.58        54.67062
514.02        54.60267
514.46        54.47971
514.90        54.34668
515.34        54.27972
515.78        54.29536
516.22        54.36675
516.66        54.45802
517.10        54.51003
517.54        54.50501
517.98        54.46596
518.42        54.40129
518.86        54.32348
519.30        54.24458
519.74        54.16111
520.18        54.09817
520.62        54.09559
521.06        54.15886
521.50         54.2788
521.93        54.42081
522.37        54.50774
522.81        54.52617
523.25        54.48973
523.69        54.43221
524.13        54.41134
524.57        54.43591
525.01        54.47935
525.45        54.51094
525.89        54.48253
526.32        54.38107
526.76        54.24872
527.20        54.09644
527.64        53.95121
528.08        53.83043
528.52        53.70384
528.96        53.61025
529.40        53.66477
529.83        53.83801
530.27        53.98832
530.71         54.0671
531.15        54.11074
531.59        54.10536
532.03        54.00349
532.46        53.83871
532.90        53.73812
533.34        53.71693
533.78        53.70986
534.22        53.70132
534.66        53.73335
535.09         53.7571
535.53        53.66014
535.97        53.46361
536.41        53.33781
536.85        53.29996
537.28        53.25563
537.72        53.22393
538.16        53.27759
538.60        53.41266
539.04        53.60254
539.47        53.77969
539.91        53.87542
540.35        53.86188
540.79        53.76546
541.22        53.63085
541.66        53.54909
542.10         53.5387
542.54        53.57504
542.97        53.62329
543.41        53.65389
543.85        53.64819
544.29        53.62616
544.72        53.58963
545.16        53.57236
545.60        53.57141
546.04        53.58022
546.47         53.6018
546.91        53.64957
547.35         53.7191
547.79        53.77388
548.22        53.79697
548.66         53.8321
549.10        53.89244
549.53        53.77407
549.97           53.54
550.41         53.3387
550.84         53.2435
551.28        53.31082
551.72        53.47192
552.15        53.56268
552.59        53.57851
553.03         53.3546
553.46        53.58776
553.90        53.49342
554.34         53.2341
554.77        53.57867
555.21        53.27675
555.65        53.34278
556.08         53.4459
556.52        53.52311
556.96        53.55577
557.39         53.6385
557.83        53.73954
558.27        53.58185
558.70        53.22467
559.14        53.06103
559.57        53.09362
560.01        53.06529
560.45        53.00298
560.88        53.13462
561.32        53.42626
561.75         53.6456
562.19        53.74749
562.63        53.66885
563.06        53.46745
563.50        53.40174
563.93        53.42592
564.37        53.39416
564.80        53.32136
565.24        53.17655
565.68        52.87683
566.11        53.41997
566.55        52.89379
566.98        52.83836
567.42        52.79565
567.85        52.97821
568.29        53.35967
568.72        53.73973
569.16        54.12167
569.60        54.30623
570.03        54.45625
570.47        54.57303
570.90        54.77881
571.34        54.22861
571.77        54.60487
572.21        54.72125
572.64         54.9127
573.08        54.92245
573.51        54.36979
573.95        54.35652
574.38        54.87783
574.82        55.05708
