SpectraSmart Spectrum 2.9.0.0
--------- Device Information -----------
Spectrum Name :  反射率_0
Saving Time :  2024/04/27 00:36:29
Spectro-Module Model Name : SE2030-DUVN
Spectro-Module Serial Number : OS361AC55029948
Wavelength Start : 200
Wavelength End : 1025
Wavelength Unit : Wavelength(nm)
Spectrum Unit : Reflectance(%)
-----------Spectrum Setting ------------
Integration Time : 20ms
Average : 10
Boxcar : 0
Background removal :  enabled
linearity correction :  enabled
SC :  disabled
Intensity correction :  disabled
DWT denoise :  enabled
savitzky-golay :  disabled
FFT :  disabled
Running average :  disabled
Kalman :  disabled
High pass :  disabled
---------------BEGIN--------------------
Wavelength(nm)             Reflectance(%)
200.29               0
200.75        37.18422
201.21        39.01047
201.67        40.91252
202.13        41.49092
202.58        40.53739
203.04        38.83694
203.50        36.88574
203.96        36.06921
204.42        37.51038
204.88         40.7948
205.34        45.37656
205.80         50.1056
206.26        53.77161
206.72        55.86087
207.18        56.54578
207.64        56.20735
208.10        55.02784
208.55        53.31074
209.01        49.58095
209.47        43.66645
209.93        38.46916
210.39        35.43269
210.85        34.74706
211.31        36.23974
211.77        40.44962
212.23        50.95718
212.69        77.58477
213.14        121.8108
213.60        117.9233
214.06        84.78806
214.52        63.71023
214.98        56.39007
215.44        55.91607
215.90        58.08394
216.36        61.14751
216.81        62.71202
217.27        62.09063
217.73        60.47828
218.19        57.08677
218.65        51.45448
219.11        46.74381
219.57         44.0677
220.02        43.87159
220.48        46.94207
220.94        53.30976
221.40        64.06404
221.86         79.3372
222.32        90.27527
222.77        87.90987
223.23        77.99453
223.69        66.47141
224.15        56.63092
224.61        48.78934
225.06          42.174
225.52        37.63314
225.98        35.84579
226.44        36.45037
226.90        38.95596
227.36        42.22302
227.81        44.22561
228.27        44.50813
228.73        43.53033
229.19         42.4581
229.65        42.72487
230.10        44.40789
230.56        47.04055
231.02        49.40104
231.48        49.61061
231.93        47.49516
232.39        44.20845
232.85        41.19376
233.31        40.30777
233.77        41.67965
234.22        44.62341
234.68        48.02764
235.14        50.24176
235.60        50.76162
236.05        50.10254
236.51        48.71483
236.97        47.62939
237.43        47.36605
237.88        47.62038
238.34        48.37246
238.80        49.87844
239.26        52.29747
239.71        56.36093
240.17         61.5897
240.63        66.34451
241.08        69.51186
241.54        70.30216
242.00        70.55862
242.46        74.92783
242.91        86.88411
243.37        108.5284
243.83        141.0621
244.28        170.8865
244.74        176.4138
245.20        156.8073
245.66        128.7734
246.11        108.2459
246.57        96.65725
247.03        88.87057
247.48        83.87831
247.94        81.24342
248.40         80.4446
248.85        81.38184
249.31        82.15322
249.77         80.0286
250.22        74.46019
250.68        64.73603
251.14        52.68983
251.59          46.801
252.05        51.91841
252.51         64.3447
252.96        76.14655
253.42          80.543
253.88         78.2672
254.33        72.31452
254.79        67.71852
255.25        68.55071
255.70         74.3588
256.16        83.19827
256.62        90.78114
257.07        90.88102
257.53        85.23022
257.99         77.8946
258.44        71.81396
258.90        69.56818
259.35        69.91188
259.81        71.78875
260.27        73.67138
260.72        73.83727
261.18        72.46277
261.63        70.01572
262.09        67.70681
262.55        66.18124
263.00        65.31258
263.46        64.95581
263.91        64.32813
264.37        62.83733
264.83        60.51498
265.28         57.7348
265.74        55.34396
266.19        54.04584
266.65         53.9449
267.11        54.59631
267.56        55.45899
268.02        55.68983
268.47        55.03939
268.93        53.81213
269.38        52.23315
269.84        50.71931
270.30        49.40451
270.75        48.15371
271.21        47.03531
271.66        46.09308
272.12        45.32609
272.57        44.73132
273.03        44.19407
273.48        43.48727
273.94        42.61897
274.39        41.60147
274.85         40.6248
275.31        39.81101
275.76        39.15248
276.22        38.63783
276.67        38.12526
277.13        37.52254
277.58        36.75786
278.04         35.9052
278.49        35.01272
278.95        34.27346
279.40        33.66923
279.86        33.22633
280.31        32.77999
280.77        32.20867
281.22        31.46854
281.68        30.68569
282.13        29.98705
282.59        29.63383
283.04        29.61587
283.50        29.86341
283.95        30.18844
284.41        30.30729
284.86        30.14855
285.32        29.83071
285.77        29.49069
286.22         29.3924
286.68         29.5752
287.13        29.89852
287.59        30.25168
288.04        30.42099
288.50        30.37891
288.95         30.1774
289.41        29.89818
289.86        29.58192
290.32        29.30642
290.77        29.05654
291.22         28.8979
291.68        28.90895
292.13        29.10364
292.59        29.50366
293.04        30.08064
293.50        30.79699
293.95        31.62368
294.40        32.56201
294.86        33.62484
295.31        34.82492
295.77        36.15862
296.22        37.58979
296.68        39.06906
297.13        40.51196
297.58        41.91282
298.04        43.29683
298.49        44.72124
298.95        46.29788
299.40        48.02998
299.85        49.88184
300.31        51.78108
300.76        53.59325
301.21        55.29962
301.67        56.96148
302.12        58.60786
302.58        60.37034
303.03         62.2297
303.48        64.17335
303.94        66.17857
304.39        68.14661
304.84        70.08251
305.30         72.0161
305.75        73.93026
306.20        75.88943
306.66        77.90717
307.11        79.91833
307.57        81.87367
308.02         83.5921
308.47        85.07943
308.93          86.395
309.38        87.65023
309.83        89.13472
310.29        90.90272
310.74        92.86461
311.19         94.8008
311.65        96.31952
312.10        97.30746
312.55        97.87744
313.00        98.30074
313.46        99.00729
313.91         100.071
314.36         101.387
314.82        102.7149
315.27        103.6814
315.72        104.1683
316.18        104.3331
316.63        104.3492
317.08        104.5316
317.53        104.9757
317.99        105.5794
318.44        106.2476
318.89        106.7963
319.35        107.1622
319.80        107.4059
320.25        107.6021
320.70        107.8667
321.16        108.2244
321.61        108.6735
322.06        109.1101
322.51        109.3814
322.97        109.4451
323.42        109.3578
323.87        109.2945
324.32          109.56
324.78        110.1752
325.23        111.1273
325.68        112.0849
326.13        112.5039
326.59        112.2564
327.04        111.5397
327.49        110.7355
327.94        110.4816
328.39         110.938
328.85        111.8812
329.30        113.1028
329.75        113.9569
330.20        114.2251
330.66         114.058
331.11        113.7504
331.56        113.6963
332.01         114.024
332.46        114.5812
332.92        115.1517
333.37        115.5548
333.82        115.6613
334.27        115.6117
334.72         115.519
335.17        115.5361
335.63         115.726
336.08        116.0993
336.53        116.6774
336.98        117.5484
337.43        118.6833
337.88        120.0014
338.34        121.3285
338.79        122.4992
339.24        123.3652
339.69        123.9717
340.14        124.2533
340.59         124.144
341.05        123.7334
341.50        123.0712
341.95        122.4853
342.40        122.4663
342.85        123.1074
343.30        124.2736
343.75        125.6366
344.20        126.6252
344.66        127.0723
345.11        127.1325
345.56        126.9934
346.01        126.9744
346.46        127.1872
346.91        127.5249
347.36        127.9319
347.81        128.3458
348.26        128.7195
348.72        129.0656
349.17        129.3737
349.62        129.6527
350.07        129.8933
350.52        130.1091
350.97        130.1683
351.42        129.8772
351.87        129.2426
352.32        128.3442
352.77        127.5043
353.22        127.1863
353.67         127.456
354.13        128.1697
354.58        128.9563
355.03        129.1464
355.48        128.5774
355.93        127.4522
356.38        126.1909
356.83        125.4299
357.28        125.2961
357.73        125.5642
358.18        125.8805
358.63        125.6825
359.08          124.83
359.53        123.5374
359.98         122.076
360.43        120.8235
360.88        119.8828
361.33        119.1328
361.78         118.454
362.23        117.6714
362.68         116.748
363.13        115.7734
363.58        114.8206
364.03        113.9787
364.48        113.2557
364.93        112.5846
365.38          111.93
365.83        111.2551
366.28         110.545
366.73         109.831
367.18         109.068
367.63        108.1763
368.08        107.1631
368.53        106.0609
368.98        105.0041
369.43        104.2063
369.88        103.7009
370.33        103.4119
370.78        103.1833
371.23        102.7571
371.68        102.0561
372.13         101.153
372.58        100.1455
373.03        99.19148
373.48        98.34542
373.93        97.56015
374.38        96.81205
374.83        96.07299
375.28        95.33289
375.72        94.59314
376.17        93.91422
376.62        93.25906
377.07        92.63766
377.52        92.08009
377.97        91.56765
378.42        91.09039
378.87         90.6478
379.32        90.19629
379.77         89.8474
380.22        89.76811
380.67        89.94238
381.11        90.34525
381.56        90.59828
382.01        90.17118
382.46        89.01553
382.91        87.38491
383.36        85.77813
383.81         84.8772
384.26        84.78792
384.71        85.27518
385.15        86.01285
385.60        86.42567
386.05        86.32602
386.50        85.88448
386.95        85.21792
387.40        84.51504
387.85        83.87287
388.29        83.18609
388.74        82.60698
389.19         82.1437
389.64        81.78916
390.09        81.53687
390.54         81.3434
390.98        81.10391
391.43        80.83418
391.88        80.54641
392.33        80.25286
392.78        79.95238
393.23        79.64849
393.67        79.35957
394.12        79.16005
394.57        78.87086
395.02         78.5512
395.47         78.4903
395.91        78.62559
396.36        78.54298
396.81        78.23176
397.26        77.90824
397.71        77.60633
398.15        77.29185
398.60        77.07175
399.05        76.79581
399.50        76.49776
399.95        76.47478
400.39        76.63635
400.84        76.32442
401.29         75.6226
401.74        75.32857
402.18        75.41568
402.63        75.10159
403.08        74.49255
403.53        74.25412
403.97        74.41178
404.42        74.65326
404.87        74.83891
405.32        74.86046
405.76        74.66681
406.21        74.32095
406.66        73.93601
407.11        73.74326
407.55         73.8168
408.00        73.93922
408.45        74.03364
408.90        74.23573
409.34        74.34396
409.79         73.7598
410.24        72.75125
410.68        72.24361
411.13        72.32843
411.58        72.54731
412.03         72.7239
412.47        72.74737
412.92        72.52931
413.37        72.15208
413.81        71.76256
414.26        71.63892
414.71         71.8028
415.15        72.19336
415.60         72.6515
416.05         72.9813
416.49        73.10827
416.94        73.07901
417.39        72.96811
417.83         72.8717
418.28        72.83816
418.73        72.84863
419.17        72.88357
419.62        72.91886
420.07        72.92932
420.51        72.89021
420.96        72.88568
421.41        72.91788
421.85        72.94755
422.30        73.21384
422.74        73.47751
423.19         73.0956
423.64        72.20901
424.08        71.83699
424.53        72.04906
424.98        72.14011
425.42        72.10712
425.87          72.489
426.31        73.10873
426.76        73.16299
427.21        72.70667
427.65        72.42529
428.10        72.38514
428.54        72.38298
428.99        72.49126
429.44        72.45961
429.88         72.4307
430.33        73.27855
430.77        74.50784
431.22        74.78928
431.66        74.11173
432.11          73.225
432.56        72.52285
433.00        72.59185
433.45         73.5259
433.89        74.41161
434.34        74.48026
434.78        75.77661
435.23        74.50735
435.67        72.79802
436.12        73.09431
436.57        73.22996
437.01        73.92807
437.46        74.15225
437.90        73.90229
438.35        73.51218
438.79         73.6104
439.24        73.65894
439.68        73.79073
440.13        74.13005
440.57        74.63567
441.02          74.768
441.46        74.57375
441.91        75.16336
442.35        76.12212
442.80        75.85909
443.24         74.6854
443.69        74.72754
444.13        75.83495
444.58        76.49785
445.02        76.07896
445.47        76.05739
445.91         76.3329
446.36        76.58372
446.80        76.79169
447.24        77.07001
447.69        77.35369
448.13        77.44378
448.58        77.36909
449.02         77.2748
449.47         77.2225
449.91         77.1583
450.36        77.12597
450.80        77.15759
451.25        77.24409
451.69        77.27119
452.13        77.23993
452.58        77.17545
453.02        77.10629
453.47        77.08424
453.91        77.10606
454.36        77.16251
454.80        77.21418
455.24        77.07322
455.69        76.71884
456.13        76.44248
456.58        76.38931
457.02        75.52445
457.46        75.39965
457.91        75.57412
458.35        76.13151
458.79        76.08933
459.24        75.47393
459.68        74.55963
460.13         73.6031
460.57        73.59808
461.01        73.80526
461.46        73.90568
461.90        74.12245
462.34        75.68204
462.79        74.83657
463.23        75.00766
463.68        74.97794
464.12        74.79787
464.56        74.39892
465.01        73.52431
465.45        72.48975
465.89        72.39353
466.34        73.01688
466.78        73.25674
467.22        73.08102
467.67        72.38747
468.11        72.45282
468.55        72.54887
468.99        72.89194
469.44        72.88483
469.88        72.51342
470.32        72.17026
470.77        71.93757
471.21        71.77325
471.65        71.69036
472.10        71.70615
472.54        71.79025
472.98         71.8481
473.42        71.83891
473.87        71.95578
474.31        72.07001
474.75        71.68171
475.20        70.96259
475.64        70.80443
476.08        71.24815
476.52        71.19996
476.97        70.53026
477.41        70.99796
477.85         71.5122
478.29        70.27766
478.74        71.02216
479.18         71.4343
479.62        71.09958
480.06        71.07666
480.50        70.87508
480.95        71.06757
481.39        71.21238
481.83        70.41147
482.27        70.87682
482.72        70.70753
483.16        70.65605
483.60        70.64873
484.04        70.70723
484.48        70.98349
484.93        71.26196
485.37        70.80894
485.81        70.35754
486.25        69.62953
486.69        71.67003
487.14        72.09631
487.58        69.76445
488.02        70.59722
488.46        69.60127
488.90        69.67635
489.34        71.19217
489.79        71.60642
490.23        71.36378
490.67        70.72215
491.11        70.06042
491.55        69.89909
491.99        70.17348
492.43        70.09688
492.88        69.65764
493.32        69.49067
493.76        69.63147
494.20        69.73405
494.64        69.75975
495.08        69.92438
495.52        70.14626
495.96        69.98567
496.41        69.55444
496.85        69.60855
497.29        69.95635
497.73        70.07529
498.17        69.14318
498.61        68.98591
499.05        69.35062
499.49        69.58232
499.93        69.36694
500.37        69.46582
500.82        69.80085
501.26        69.60971
501.70        69.43959
502.14        69.74626
502.58        69.74135
503.02        69.87848
503.46        69.87327
503.90        69.91224
504.34        69.95531
504.78        69.90329
505.22        69.76234
505.66        69.52736
506.10        69.29361
506.54        69.22643
506.98        69.28497
507.42         69.3694
507.86        69.47247
508.30        69.08497
508.74        69.41641
509.18        69.36209
509.62        69.28852
510.06        69.23377
510.50        69.21241
510.94        69.19103
511.38        69.16133
511.82        69.14513
512.26        69.14341
512.70        69.16055
513.14        69.19203
513.58         69.2263
514.02         69.2584
514.46        69.28323
514.90        69.30984
515.34         69.3549
515.78         69.4146
516.22         69.4791
516.66          69.514
517.10         69.4659
517.54        69.33115
517.98        69.13676
518.42        68.93053
518.86        68.78747
519.30        68.73071
519.74        68.73982
520.18        68.79798
520.62        68.87385
521.06        68.95486
521.50        69.05494
521.93        69.16092
522.37        69.22877
522.81        69.25982
523.25        69.25142
523.69        69.24236
524.13        69.30156
524.57        69.43185
525.01        69.60016
525.45        69.74349
525.89        69.75996
526.32        69.62186
526.76        69.39091
527.20        69.10873
527.64        68.84573
528.08        68.63541
528.52        68.46321
528.96        68.35505
529.40        68.34805
529.83        68.43476
530.27        68.60934
530.71        68.80037
531.15        68.89831
531.59         68.8766
532.03          68.758
532.46        68.58977
532.90        68.50062
533.34         68.5069
533.78        68.53355
534.22        68.54263
534.66         68.5611
535.09         68.5265
535.53        68.30527
535.97        67.95881
536.41        67.75745
536.85        67.73387
537.28        67.75293
537.72        67.80541
538.16        67.92799
538.60        68.10136
539.04        68.30945
539.47         68.4924
539.91        68.60334
540.35         68.6164
540.79        68.54884
541.22        68.44041
541.66        68.38152
542.10         68.3863
542.54        68.43017
542.97        68.47375
543.41        68.48671
543.85        68.44707
544.29        68.37936
544.72        68.28601
545.16        68.19976
545.60        68.12048
546.04         68.0783
546.47        68.08306
546.91        68.09674
547.35        68.14941
547.79        68.32304
548.22         68.5612
548.66        68.76551
549.10        68.92085
549.53        68.80386
549.97        68.51212
550.41        68.24145
550.84        68.08963
551.28        68.16517
551.72        68.39537
552.15        68.31716
552.59        68.41058
553.03          68.033
553.46        68.32217
553.90        68.14063
554.34        68.18327
554.77        68.23949
555.21        68.46934
555.65        68.23354
556.08        68.55243
556.52        68.55929
556.96        68.53281
557.39         68.5562
557.83        68.59776
558.27        68.34055
558.70        67.87012
559.14        67.69565
559.57        67.79775
560.01        67.85868
560.45        67.86282
560.88        67.93672
561.32        68.08791
561.75        68.31326
562.19        68.56451
562.63        68.47976
563.06         68.1692
563.50        68.28253
563.93        68.67311
564.37        68.76088
564.80         68.5503
565.24        68.23933
565.68        67.78761
566.11        68.42818
566.55        67.72772
566.98        67.74416
567.42        67.80772
567.85        67.89247
568.29        68.23866
568.72        68.45846
569.16        68.78435
569.60        69.22437
570.03        68.96021
570.47        69.14099
570.90        69.56001
571.34        68.51591
571.77        69.14104
572.21        69.25819
572.64        69.13662
573.08        69.30811
573.51        68.75927
573.95        68.82709
574.38        69.41165
574.82        69.22631
