SpectraSmart Spectrum 2.9.0.0
--------- Device Information -----------
Spectrum Name :  反射率_0
Saving Time :  2024/04/27 00:41:11
Spectro-Module Model Name : SE2030-DUVN
Spectro-Module Serial Number : OS361AC55029948
Wavelength Start : 200
Wavelength End : 1025
Wavelength Unit : Wavelength(nm)
Spectrum Unit : Reflectance(%)
-----------Spectrum Setting ------------
Integration Time : 20ms
Average : 10
Boxcar : 0
Background removal :  enabled
linearity correction :  enabled
SC :  disabled
Intensity correction :  disabled
DWT denoise :  enabled
savitzky-golay :  disabled
FFT :  disabled
Running average :  disabled
Kalman :  disabled
High pass :  disabled
---------------BEGIN--------------------
Wavelength(nm)             Reflectance(%)
200.29               0
200.75        42.03651
201.21        38.39691
201.67        35.63498
202.13        34.06808
202.58         33.4655
203.04        33.91458
203.50         35.7626
203.96        39.27154
204.42        44.25019
204.88        50.42227
205.34        56.18121
205.80        59.18609
206.26        58.91874
206.72        55.92079
207.18         52.5102
207.64        50.82001
208.10        51.04019
208.55        53.47173
209.01        56.82217
209.47        56.81802
209.93        52.63012
210.39        47.73625
210.85        44.86108
211.31        45.32676
211.77        49.65528
212.23        60.92263
212.69        90.07603
213.14        140.4317
213.60        139.3271
214.06        105.0798
214.52        81.28033
214.98        69.81526
215.44        63.77116
215.90        58.70351
216.36        54.66496
216.81        52.43434
217.27        52.40535
217.73        55.81273
218.19        60.45928
218.65        57.57632
219.11         47.2933
219.57         36.5953
220.02        31.08042
220.48        33.33398
220.94        43.05954
221.40         61.8086
221.86        89.24359
222.32        108.1406
222.77        102.7065
223.23        83.70159
223.69        64.43311
224.15        52.69302
224.61        47.19575
225.06        44.47686
225.52        43.06474
225.98         41.3269
226.44        39.01614
226.90        36.87724
227.36        35.07873
227.81        33.91469
228.27        33.54362
228.73        33.36169
229.19        33.71485
229.65        35.14737
230.10        37.49463
230.56        40.65455
231.02        43.12734
231.48        42.54871
231.93        38.89853
232.39        33.56901
232.85        28.78007
233.31        27.37855
233.77        29.55439
234.22        34.31489
234.68        39.86557
235.14        43.43898
235.60        44.19011
236.05        42.82487
236.51        40.37591
236.97        39.06682
237.43        39.86227
237.88        42.17757
238.34        45.15831
238.80        47.66739
239.26        49.46141
239.71        51.43322
240.17        54.02331
240.63        58.38027
241.08        65.09308
241.54        72.96598
242.00        82.27236
242.46        94.85037
242.91        113.2815
243.37        140.3121
243.83        175.2402
244.28        199.1887
244.74        187.9949
245.20        145.4628
245.66         100.116
246.11        74.26544
246.57        67.30999
247.03        72.50845
247.48        83.31522
247.94        87.96561
248.40        84.71532
248.85        78.88441
249.31        74.12798
249.77         72.0714
250.22        72.29195
250.68        73.57059
251.14        75.03563
251.59        74.64259
252.05        72.10674
252.51        69.65123
252.96        67.42353
253.42        65.59306
253.88         64.1787
254.33        62.57001
254.79        62.92742
255.25        66.96005
255.70        74.03873
256.16        83.30942
256.62        90.62611
257.07          89.925
257.53        83.34441
257.99        74.98938
258.44        68.21886
258.90        65.91605
259.35        66.66752
259.81        69.18882
260.27        71.60074
260.72        71.69382
261.18        69.71632
261.63          66.496
262.09          63.488
262.55         61.5999
263.00        60.70874
263.46        60.48175
263.91         60.1334
264.37        59.05546
264.83        57.20085
265.28        54.90446
265.74        52.83254
266.19        51.45865
266.65        50.88892
267.11        50.79004
267.56        50.80894
268.02        50.41752
268.47        49.47399
268.93        48.19569
269.38        46.74512
269.84        45.42266
270.30        44.30414
270.75        43.28226
271.21        42.36971
271.66        41.52788
272.12        40.74121
272.57        40.01924
273.03        39.30616
273.48        38.48936
273.94        37.60936
274.39        36.66176
274.85        35.79884
275.31        35.09882
275.76        34.54386
276.22        34.12867
276.67        33.73711
277.13        33.29528
277.58        32.73616
278.04        32.11739
278.49        31.44574
278.95         30.8488
279.40         30.3028
279.86        29.84315
280.31        29.37417
280.77        28.86184
281.22        28.27345
281.68        27.69704
282.13         27.1805
282.59        26.86611
283.04        26.73684
283.50        26.76366
283.95        26.85921
284.41         26.8954
284.86        26.83754
285.32         26.7526
285.77        26.67771
286.22        26.72929
286.68        26.92433
287.13        27.17497
287.59          27.461
288.04        27.70996
288.50        27.91088
288.95        28.05446
289.41        28.12938
289.86        28.04868
290.32        27.86555
290.77        27.62054
291.22        27.43478
291.68        27.46918
292.13        27.76279
292.59         28.3037
293.04        29.06011
293.50        29.98793
293.95        31.04681
294.40        32.24669
294.86        33.55599
295.31        34.91513
295.77        36.31303
296.22        37.73112
296.68        39.19722
297.13        40.75166
297.58        42.40989
298.04        44.15635
298.49        45.95924
298.95        47.78755
299.40        49.61226
299.85        51.44813
300.31        53.29847
300.76        55.14277
301.21        56.99384
301.67        58.87432
302.12        60.76678
302.58        62.73969
303.03        64.74596
303.48        66.78304
303.94        68.85197
304.39         70.8836
304.84        72.88967
305.30        74.89622
305.75        76.83916
306.20        78.71638
306.66        80.54725
307.11         82.3004
307.57        84.02158
308.02        85.66805
308.47        87.26114
308.93        88.79916
309.38        90.29219
309.83        91.88022
310.29        93.57523
310.74        95.33107
311.19        96.97045
311.65        98.17529
312.10        98.87155
312.55         99.1632
313.00        99.33445
313.46        99.82914
313.91        100.7244
314.36        101.9243
314.82         103.188
315.27        104.1303
315.72        104.6277
316.18        104.8348
316.63         104.911
317.08        105.1574
317.53        105.6567
317.99        106.2904
318.44         106.973
318.89        107.5401
319.35        107.9307
319.80        108.2116
320.25        108.4096
320.70        108.5622
321.16        108.6943
321.61        108.8336
322.06        108.9916
322.51        109.2057
322.97        109.4651
323.42         109.757
323.87        110.1112
324.32        110.5952
324.78         111.164
325.23        111.8782
325.68        112.4904
326.13        112.6131
326.59        112.1898
327.04        111.3747
327.49        110.5555
327.94        110.3808
328.39        110.9926
328.85        112.1655
329.30        113.6277
329.75         114.605
330.20        114.8392
330.66        114.5157
331.11        113.9687
331.56        113.6671
332.01        113.7757
332.46        114.1222
332.92        114.5442
333.37        114.9486
333.82        115.2136
334.27        115.4579
334.72        115.6756
335.17        115.8171
335.63        115.8929
336.08         115.964
336.53        116.1663
336.98        116.7849
337.43        117.8588
337.88        119.2672
338.34        120.7617
338.79        122.0476
339.24        122.9295
339.69        123.4762
340.14         123.704
340.59        123.6716
341.05        123.4864
341.50          123.16
341.95        122.8651
342.40        122.8611
342.85        123.2155
343.30        123.8706
343.75        124.7304
344.20        125.6067
344.66        126.4039
345.11        127.1342
345.56        127.7238
346.01        128.0771
346.46        128.2037
346.91        128.1453
347.36        128.0055
347.81        127.9696
348.26        128.0808
348.72        128.2702
349.17        128.5283
349.62        128.8703
350.07        129.2602
350.52         129.716
350.97        130.0123
351.42        129.7872
351.87        129.0177
352.32        127.8352
352.77        126.6584
353.22        126.1033
353.67        126.2784
354.13        126.9954
354.58        127.8569
355.03        128.1473
355.48        127.6744
355.93        126.6505
356.38        125.4703
356.83        124.7284
357.28         124.546
357.73        124.7058
358.18        124.8753
358.63        124.5367
359.08        123.5687
359.53        122.1756
359.98        120.6379
360.43        119.3433
360.88        118.3897
361.33        117.6559
361.78        116.9879
362.23        116.1526
362.68        115.1063
363.13        113.9595
363.58        112.8331
364.03        111.8902
364.48        111.1577
364.93        110.5471
365.38        109.9885
365.83        109.3885
366.28        108.7088
366.73        107.9866
367.18        107.1945
367.63         106.282
368.08        105.2614
368.53        104.1574
368.98        103.0711
369.43        102.1645
369.88        101.4721
370.33        100.9479
370.78        100.5042
371.23        99.99249
371.68        99.36379
372.13        98.65599
372.58        97.90829
373.03        97.18385
373.48        96.49821
373.93        95.81841
374.38        95.12773
374.83        94.41455
375.28         93.6768
375.72        92.90933
376.17        92.17379
376.62        91.44061
377.07        90.72829
377.52        90.07601
377.97        89.48365
378.42        88.96696
378.87        88.52786
379.32           88.11
379.77        87.80367
380.22        87.74343
380.67        87.90337
381.11        88.26819
381.56        88.45989
382.01        87.95036
382.46        86.70324
382.91        84.97778
383.36        83.29744
383.81        82.37828
384.26        82.32692
384.71        82.89323
385.15        83.72517
385.60          84.203
386.05        84.12146
386.50        83.66298
386.95        82.94784
387.40         82.1719
387.85        81.44527
388.29        80.67071
388.74        80.01529
389.19        79.51463
389.64        79.16218
390.09        78.93632
390.54        78.78686
390.98        78.59812
391.43        78.37363
391.88        78.12392
392.33        77.83365
392.78        77.48051
393.23         77.0758
393.67        76.60758
394.12        76.19731
394.57        75.85728
395.02        75.60432
395.47        75.43953
395.91        75.34634
396.36         75.2326
396.81        75.09779
397.26        74.97354
397.71        74.82583
398.15         74.5862
398.60        74.34302
399.05        73.98461
399.50         73.5852
399.95        73.46173
400.39        73.56192
400.84        73.29419
401.29        72.70887
401.74        72.50974
402.18        72.61759
402.63        72.18586
403.08        71.36219
403.53        70.98105
403.97         71.0826
404.42        71.25429
404.87        71.36956
405.32        71.33551
405.76        71.08952
406.21        70.83143
406.66        70.60709
407.11        70.19575
407.55        69.80357
408.00        70.04045
408.45        70.76027
408.90         71.1318
409.34        70.93964
409.79        70.33401
410.24        69.55379
410.68        69.05449
411.13        68.92228
411.58        68.90121
412.03         68.8779
412.47        68.78355
412.92         68.5614
413.37        68.27596
413.81        68.00652
414.26        67.93023
414.71        68.04742
415.15         68.3195
415.60        68.64108
416.05        68.91021
416.49        69.08051
416.94         69.1652
417.39        69.18144
417.83        69.14961
418.28        69.08588
418.73        68.97071
419.17        68.84241
419.62        68.77184
420.07        68.77111
420.51        68.81297
420.96        68.85819
421.41         68.8054
421.85        68.62277
422.30        68.35912
422.74        68.04234
423.19        67.94351
423.64        68.00144
424.08        67.90366
424.53        67.67245
424.98        67.68547
425.42        67.96697
425.87         68.2661
426.31        68.48403
426.76         68.5463
427.21        68.43032
427.65        68.12334
428.10        67.73023
428.54        67.55827
428.99        67.69299
429.44         67.7293
429.88        67.73314
430.33        68.39286
430.77        69.34248
431.22        69.57446
431.66        69.10711
432.11        68.63099
432.56        68.36517
433.00        68.28471
433.45         68.4925
433.89        68.95946
434.34        69.16225
434.78        69.74928
435.23        69.13195
435.67        67.19224
436.12        67.96475
436.57        68.02122
437.01        68.42397
437.46        68.66026
437.90        68.78322
438.35        67.92529
438.79        68.34428
439.24        68.23278
439.68        68.22369
440.13        68.31231
440.57        68.53664
441.02        68.64323
441.46        68.60098
441.91        69.10051
442.35        69.78412
442.80        69.43229
443.24        68.33084
443.69        68.36224
444.13        69.39555
444.58        69.84084
445.02        69.52661
445.47        69.48402
445.91        69.74401
446.36        70.00109
446.80        70.23715
447.24        70.52287
447.69        70.79161
448.13        70.91615
448.58        70.89174
449.02        70.73066
449.47        70.50809
449.91        70.31667
450.36        70.21231
450.80        70.14949
451.25        70.14135
451.69        70.14697
452.13        70.16878
452.58        70.21362
453.02        70.25907
453.47        70.27335
453.91        70.23437
454.36        70.14942
454.80        70.02674
455.24        69.80594
455.69        69.49492
456.13        69.28649
456.58        69.22665
457.02        68.64042
457.46        68.11883
457.91        68.33566
458.35        69.08638
458.79        69.11254
459.24        68.40862
459.68        67.55015
460.13        66.86252
460.57        66.60354
461.01        66.90489
461.46        67.19186
461.90         67.8441
462.34        68.55008
462.79        68.22356
463.23        68.26367
463.68        68.26099
464.12        67.95568
464.56        67.36202
465.01        66.66138
465.45        66.02998
465.89        65.84904
466.34        65.98939
466.78        66.24696
467.22        66.58382
467.67        65.62781
468.11        65.63083
468.55        65.59821
468.99        66.05103
469.44        66.08097
469.88        65.67267
470.32        65.33605
470.77         65.1378
471.21        64.99137
471.65        64.90477
472.10        64.90524
472.54        64.96747
472.98        65.00228
473.42        64.97013
473.87        65.07232
474.31        65.18845
474.75         64.7915
475.20        64.09878
475.64         64.0433
476.08        64.55572
476.52        64.61713
476.97        64.15895
477.41         63.9452
477.85         64.1526
478.29        63.52223
478.74        64.04488
479.18        64.26572
479.62        63.94506
480.06        63.91433
480.50        63.91069
480.95         63.9984
481.39        64.15054
481.83         63.5865
482.27         63.8491
482.72        63.69638
483.16        63.59441
483.60        63.58353
484.04        63.66014
484.48        63.84606
484.93        64.00826
485.37        64.13266
485.81        63.30515
486.25        63.63266
486.69        65.28305
487.14        65.35445
487.58        63.25747
488.02        63.96563
488.46        63.18946
488.90        62.47365
489.34        64.11329
489.79        64.52015
490.23          64.078
490.67        63.47919
491.11        62.86734
491.55        62.65102
491.99        62.78062
492.43        62.67043
492.88        62.32323
493.32        62.32807
493.76        62.52748
494.20        62.68331
494.64        62.71671
495.08        62.74401
495.52        62.74725
495.96        62.69827
496.41        62.60186
496.85        62.45789
497.29        62.23652
497.73         62.2834
498.17        61.83562
498.61        61.91534
499.05        62.19014
499.49        62.25582
499.93        61.91707
500.37        61.87957
500.82        62.07898
501.26        62.17985
501.70         62.1588
502.14        62.15845
502.58        62.19917
503.02        62.27446
503.46        62.38687
503.90        62.44572
504.34        62.55083
504.78        62.50492
505.22        62.33834
505.66        62.09451
506.10        61.86642
506.54        61.72609
506.98        61.68572
507.42        62.00095
507.86        62.08638
508.30        62.21923
508.74        62.21032
509.18        62.10923
509.62        61.96422
510.06         61.8645
510.50        61.84022
510.94        61.85705
511.38        61.88527
511.82        61.87904
512.26        61.82682
512.70         61.7508
513.14        61.67519
513.58        61.63387
514.02        61.63715
514.46        61.67157
514.90        61.72086
515.34        61.76202
515.78        61.78317
516.22        61.78429
516.66        61.77123
517.10        61.75373
517.54        61.73428
517.98        61.71374
518.42        61.67443
518.86        61.58944
519.30        61.46155
519.74        61.30519
520.18        61.16793
520.62        61.12021
521.06        61.17589
521.50        61.31604
521.93        61.48891
522.37        61.58852
522.81        61.59473
523.25        61.52975
523.69        61.44487
524.13        61.42371
524.57        61.48054
525.01         61.5804
525.45        61.67203
525.89        61.67493
526.32        61.56597
526.76        61.39712
527.20        61.20254
527.64         61.0384
528.08         60.9271
528.52        60.85127
528.96        60.82031
529.40        60.84812
529.83        60.92575
530.27        61.05478
530.71        61.18489
531.15        61.24152
531.59         61.2088
532.03        61.10075
532.46        60.95997
532.90        60.89942
533.34        60.93169
533.78        60.99409
534.22        61.03843
534.66        61.06626
535.09        61.01868
535.53         60.7788
535.97        60.42893
536.41        60.25399
536.85        60.28873
537.28        60.39933
537.72        60.53342
538.16        60.65271
538.60        60.72725
539.04        60.76738
539.47        60.77311
539.91        60.78415
540.35        60.79546
540.79        60.79684
541.22        60.78054
541.66        60.75777
542.10        60.72466
542.54         60.6857
542.97        60.63827
543.41        60.60405
543.85        60.57843
544.29        60.56447
544.72        60.54591
545.16        60.53416
545.60         60.5183
546.04        60.50332
546.47        60.49863
546.91        60.53379
547.35        60.60889
547.79        60.67716
548.22        60.70467
548.66        60.82273
549.10        60.77064
549.53        60.78717
549.97         60.7846
550.41        60.64389
550.84        60.42958
551.28        60.34534
551.72        60.36675
552.15        60.40219
552.59        60.50256
553.03        60.15723
553.46        60.55201
553.90        60.57067
554.34        60.54467
554.77        60.60723
555.21        60.58405
555.65        60.65727
556.08        60.74805
556.52        60.81779
556.96        60.82703
557.39        60.88004
557.83        60.92779
558.27        60.64219
558.70        60.13509
559.14        59.94216
559.57        60.05556
560.01        60.14546
560.45        60.17577
560.88        60.24669
561.32        60.36162
561.75        60.51379
562.19         60.6717
562.63        60.57577
563.06        60.31971
563.50        60.36164
563.93         60.5981
564.37        60.72078
564.80        60.68603
565.24        60.37909
565.68        59.79638
566.11        60.32122
566.55        59.82014
566.98        59.90042
567.42          59.957
567.85        60.17505
568.29        60.51001
568.72        60.70896
569.16        60.83989
569.60        61.07751
570.03        60.99974
570.47         61.2322
570.90        61.71714
571.34        60.82247
571.77        61.29061
572.21        61.62356
572.64         61.3124
573.08         61.4742
573.51        61.03943
573.95        61.12435
574.38        61.63312
574.82        61.60773
