SpectraSmart Spectrum 2.9.0.0
--------- Device Information -----------
Spectrum Name :  反射率_0
Saving Time :  2024/04/27 00:38:19
Spectro-Module Model Name : SE2030-DUVN
Spectro-Module Serial Number : OS361AC55029948
Wavelength Start : 200
Wavelength End : 1025
Wavelength Unit : Wavelength(nm)
Spectrum Unit : Reflectance(%)
-----------Spectrum Setting ------------
Integration Time : 20ms
Average : 10
Boxcar : 0
Background removal :  enabled
linearity correction :  enabled
SC :  disabled
Intensity correction :  disabled
DWT denoise :  enabled
savitzky-golay :  disabled
FFT :  disabled
Running average :  disabled
Kalman :  disabled
High pass :  disabled
---------------BEGIN--------------------
Wavelength(nm)             Reflectance(%)
200.29               0
200.75        28.45844
201.21        30.53139
201.67        33.24428
202.13        36.06379
202.58        39.04493
203.04        43.14088
203.50        48.16422
203.96        52.17307
204.42          53.484
204.88        51.43745
205.34        47.54457
205.80        45.71329
206.26        46.76999
206.72        49.25923
207.18        51.09394
207.64         50.0638
208.10        45.83533
208.55         38.6421
209.01        28.63452
209.47        22.97144
209.93        26.09348
210.39        33.16687
210.85        40.15652
211.31        46.58796
211.77        54.65682
212.23        69.61543
212.69        104.1705
213.14        160.3424
213.60         154.743
214.06        112.0169
214.52        83.25182
214.98        69.34983
215.44        61.80301
215.90        55.89198
216.36        51.29185
216.81        48.13285
217.27        46.66887
217.73        47.99858
218.19        50.61102
218.65        48.60381
219.11        42.11496
219.57        35.34668
220.02        32.61499
220.48        36.73343
220.94        47.91214
221.40        67.99477
221.86        96.18693
222.32        113.5429
222.77        104.3765
223.23        81.65938
223.69        59.82043
224.15        46.80485
224.61        40.96814
225.06        38.46281
225.52         37.8552
225.98         37.7246
226.44        37.66458
226.90        38.27493
227.36        39.02832
227.81        38.90947
228.27        37.94969
228.73        36.22919
229.19        34.94151
229.65         35.6078
230.10         38.1616
230.56        42.05671
231.02        45.64807
231.48        46.30484
231.93        43.73527
232.39         39.3968
232.85        35.11126
233.31        33.19052
233.77        33.87512
234.22        36.37092
234.68        39.50631
235.14        41.55325
235.60        41.97624
236.05        41.30823
236.51        40.10666
236.97        39.51336
237.43         40.0395
237.88        41.31231
238.34        43.01466
238.80        44.94767
239.26        47.13761
239.71        50.25446
240.17        54.13636
240.63        58.20182
241.08        61.99064
241.54        64.67328
242.00        67.42941
242.46        73.52327
242.91        85.71407
243.37        105.9464
243.83        134.5615
244.28        157.8336
244.74        156.2485
245.20        131.0128
245.66        100.3147
246.11        79.54424
246.57        69.26219
247.03         64.5304
247.48        63.72338
247.94        64.40084
248.40         65.3576
248.85        67.12601
249.31        68.64714
249.77        68.43266
250.22        66.27327
250.68        61.39725
251.14        55.51718
251.59        54.78675
252.05        61.64823
252.51        73.18354
252.96        81.81011
253.42        81.27445
253.88        73.37785
254.33        61.90283
254.79        53.26434
255.25        52.77421
255.70        59.67417
256.16        71.13901
256.62        81.80759
257.07        83.69724
257.53        78.16686
257.99        70.09439
258.44        63.05887
258.90        59.96392
259.35        59.61657
259.81        60.81189
260.27        61.98782
260.72        61.41328
261.18        59.34785
261.63        56.45246
262.09        53.95255
262.55        52.60205
263.00        52.22589
263.46        52.47077
263.91         52.5585
264.37        51.82549
264.83        50.22129
265.28        48.09858
265.74        46.08525
266.19        44.64659
266.65        43.90281
267.11        43.55481
267.56         43.3518
268.02        42.91823
268.47         42.1534
268.93        41.23805
269.38        40.23607
269.84        39.27838
270.30        38.40686
270.75        37.55871
271.21        36.82514
271.66        36.30768
272.12        35.99439
272.57          35.805
273.03        35.58447
273.48        35.07487
273.94        34.27027
274.39        33.24332
274.85        32.15993
275.31        31.11585
275.76        30.15582
276.22        29.30965
276.67        28.58921
277.13        28.08797
277.58        27.75382
278.04        27.55424
278.49        27.38983
278.95        27.21284
279.40        26.94493
279.86        26.66478
280.31        26.26727
280.77         25.7008
281.22        24.96769
281.68        24.16618
282.13        23.45083
282.59        23.10448
283.04        23.12782
283.50        23.44302
283.95        23.86021
284.41         24.0717
284.86        24.00048
285.32        23.77273
285.77        23.50735
286.22        23.43188
286.68        23.59037
287.13        23.85846
287.59        24.18633
288.04        24.46331
288.50        24.66518
288.95        24.80802
289.41        24.88077
289.86        24.80003
290.32        24.61481
290.77        24.35433
291.22         24.1503
291.68        24.18572
292.13        24.49786
292.59        25.06576
293.04        25.81342
293.50          26.626
293.95        27.45671
294.40        28.34134
294.86        29.31779
295.31        30.43656
295.77        31.71071
296.22        33.09459
296.68        34.55405
297.13        36.02997
297.58         37.5187
298.04        39.04661
298.49        40.63237
298.95        42.32154
299.40        44.10337
299.85        45.94931
300.31        47.84146
300.76        49.73753
301.21        51.62466
301.67        53.52473
302.12         55.3809
302.58        57.19262
303.03        58.92342
303.48        60.61194
303.94        62.32635
304.39        64.10477
304.84        65.98551
305.30        67.96312
305.75        69.96371
306.20         71.9571
306.66        73.93636
307.11        75.87243
307.57        77.76408
308.02        79.50738
308.47        81.11214
308.93        82.59107
309.38        84.00133
309.83        85.55469
310.29        87.27962
310.74        89.10675
311.19        90.83788
311.65        92.11775
312.10        92.86169
312.55        93.19566
313.00        93.39487
313.46        93.88631
313.91        94.75438
314.36        95.90231
314.82        97.13412
315.27        98.14182
315.72        98.80251
316.18        99.22598
316.63        99.50188
317.08        99.81973
317.53          100.24
317.99        100.6959
318.44        101.1264
318.89        101.4118
319.35        101.5292
319.80        101.5378
320.25        101.5457
320.70        101.7164
321.16        102.0836
321.61        102.6352
322.06        103.2386
322.51        103.6834
322.97        103.9004
323.42        103.9499
323.87        103.9922
324.32        104.3157
324.78        104.9442
325.23        105.8604
325.68        106.7673
326.13        107.1832
326.59        106.9971
327.04        106.3901
327.49        105.7087
327.94         105.534
328.39        106.0049
328.85        106.9048
329.30        108.0453
329.75        108.8266
330.20        109.0521
330.66        108.8852
331.11        108.5673
331.56        108.4065
332.01        108.5264
332.46        108.7981
332.92        109.1566
333.37        109.6675
333.82        110.2437
334.27        110.9334
334.72        111.6053
335.17        112.0141
335.63        112.1146
336.08        112.0219
336.53        111.9611
336.98        112.3678
337.43        113.3329
337.88        114.6927
338.34        116.1651
338.79        117.3913
339.24        118.1567
339.69        118.5639
340.14        118.6407
340.59        118.4521
341.05        118.1179
341.50         117.653
341.95        117.2409
342.40        117.1615
342.85        117.4827
343.30        118.1334
343.75        119.0225
344.20        119.9648
344.66        120.8595
345.11        121.7231
345.56        122.4304
346.01        122.8089
346.46        122.8587
346.91        122.6344
347.36        122.3402
347.81        122.3208
348.26        122.6415
348.72        123.1844
349.17        123.7936
349.62        124.2488
350.07        124.4691
350.52        124.5502
350.97        124.4337
351.42        124.0283
351.87        123.3776
352.32        122.5256
352.77        121.7456
353.22        121.4387
353.67        121.6603
354.13        122.2882
354.58        123.0207
355.03        123.2994
355.48        122.9709
355.93        122.1857
356.38        121.2472
356.83        120.6236
357.28        120.4076
357.73         120.426
358.18        120.4246
358.63        120.0088
359.08        119.0914
359.53        117.8422
359.98        116.4679
360.43        115.2447
360.88        114.2516
361.33        113.4078
361.78        112.6384
362.23        111.8343
362.68        110.9728
363.13        110.1117
363.58        109.2887
364.03        108.5426
364.48        107.8688
364.93        107.2218
365.38        106.5782
365.83        105.9206
366.28        105.2403
366.73        104.5498
367.18        103.8185
367.63        102.9944
368.08        102.0792
368.53        101.0973
368.98        100.1284
369.43        99.29465
369.88        98.62412
370.33        98.08691
370.78        97.60474
371.23        97.04889
371.68        96.38297
372.13        95.63554
372.58        94.87817
373.03         94.2254
373.48        93.69067
373.93        93.22088
374.38        92.72308
374.83        92.06123
375.28        91.21397
375.72         90.2262
376.17        89.23809
376.62        88.34318
377.07        87.59117
377.52         86.9784
377.97        86.48169
378.42         86.0749
378.87        85.73824
379.32        85.43709
379.77        85.22532
380.22        85.18026
380.67        85.27575
381.11          85.504
381.56        85.57051
382.01        85.09538
382.46         84.0601
382.91         82.6563
383.36        81.29165
383.81        80.52157
384.26        80.42181
384.71        80.79876
385.15        81.36083
385.60        81.59282
386.05        81.33971
386.50         80.7632
386.95        79.99095
387.40        79.22861
387.85         78.5725
388.29        77.91593
388.74        77.39391
389.19        76.99886
389.64        76.71598
390.09        76.54336
390.54        76.41603
390.98        76.19759
391.43        75.89848
391.88        75.54013
392.33        75.18089
392.78         74.8823
393.23         74.6518
393.67        74.50139
394.12        74.44576
394.57        74.18876
395.02        73.79404
395.47        73.66602
395.91        73.76391
396.36        73.63519
396.81        73.28029
397.26        72.95096
397.71        72.68281
398.15        72.40781
398.60        72.21828
399.05        72.02224
399.50        71.82555
399.95         71.7759
400.39        71.82616
400.84        71.58151
401.29        71.08843
401.74        70.84488
402.18        70.80858
402.63        70.38509
403.08        69.70183
403.53        69.36945
403.97        69.42121
404.42        69.55965
404.87        69.67163
405.32        69.67612
405.76        69.52657
406.21        69.30251
406.66        69.04306
407.11        68.83151
407.55         68.7454
408.00        68.65604
408.45        68.59072
408.90        68.86071
409.34        69.25777
409.79        68.99336
410.24        68.22105
410.68        67.83522
411.13        67.89684
411.58        67.89908
412.03        67.78298
412.47        67.70144
412.92        67.61964
413.37        67.52154
413.81        67.41158
414.26        67.36077
414.71         67.3521
415.15        67.39932
415.60        67.44536
416.05        67.46918
416.49        67.46844
416.94        67.44193
417.39        67.42183
417.83        67.43946
418.28        67.50717
418.73        67.61753
419.17        67.73861
419.62        67.81955
420.07        67.83108
420.51        67.76019
420.96        67.67952
421.41        67.58492
421.85        67.45472
422.30        67.53878
422.74        67.67613
423.19        67.30919
423.64        66.59985
424.08        66.57709
424.53        67.18311
424.98        67.45872
425.42        67.34296
425.87        67.44537
426.31        67.73274
426.76        67.64641
427.21        67.28529
427.65        67.21866
428.10        67.40214
428.54        67.48798
428.99        67.51152
429.44        67.32095
429.88        67.09621
430.33        67.71185
430.77        68.76056
431.22        68.96609
431.66        68.32728
432.11        67.67694
432.56        67.30563
433.00        67.34551
433.45        67.90498
433.89        68.54745
434.34        69.16869
434.78        69.81207
435.23        68.96461
435.67         67.2609
436.12        67.48871
436.57        67.65485
437.01        68.38045
437.46        68.71259
437.90        68.64986
438.35        67.91917
438.79        68.28117
439.24        68.28155
439.68        68.38754
440.13        68.75397
440.57        69.32014
441.02        69.37962
441.46        69.03236
441.91        69.64472
442.35        70.77969
442.80        70.64163
443.24        69.48716
443.69        69.45202
444.13        70.45049
444.58        70.82908
445.02        70.53999
445.47        70.49719
445.91        70.75193
446.36        71.00274
446.80         71.2315
447.24        71.50722
447.69        71.77392
448.13        71.92569
448.58        71.96078
449.02        71.88084
449.47        71.75388
449.91        71.66185
450.36        71.65317
450.80        71.68012
451.25        71.74876
451.69          71.807
452.13        71.85363
452.58        71.90083
453.02        71.94542
453.47        71.93533
453.91        71.87825
454.36        71.83097
454.80        71.81017
455.24        71.42817
455.69        71.26662
456.13        70.97562
456.58        70.80257
457.02        70.34595
457.46        70.00415
457.91        70.14629
458.35        70.58474
458.79        70.48428
459.24        69.85564
459.68        69.05112
460.13        68.37138
460.57        68.08989
461.01        68.32353
461.46        68.57472
461.90        69.18973
462.34        69.72864
462.79        69.44292
463.23         69.5084
463.68        69.57689
464.12        69.32928
464.56        68.74505
465.01        67.89457
465.45        67.02585
465.89        66.85751
466.34        67.24953
466.78        67.59476
467.22        67.76723
467.67        67.24502
468.11        66.93488
468.55        66.91853
468.99        67.35295
469.44        67.41474
469.88        67.09186
470.32        66.90156
470.77        66.88279
471.21        66.85163
471.65        66.79586
472.10        66.77019
472.54        66.75647
472.98        66.69038
473.42        66.55186
473.87        66.50466
474.31        66.45423
474.75        66.01413
475.20        65.36272
475.64        65.19876
476.08        65.49121
476.52        65.52721
476.97        65.26219
477.41        65.20098
477.85        65.41705
478.29        65.20612
478.74        65.45528
479.18        65.68501
479.62        65.70454
480.06        65.68987
480.50        65.49872
480.95        65.34231
481.39        65.29367
481.83        64.83471
482.27        64.95863
482.72        65.20209
483.16        65.32126
483.60        65.21877
484.04        65.56077
484.48        65.57045
484.93         65.3399
485.37        65.60347
485.81         64.9861
486.25        64.46882
486.69        65.77503
487.14        66.11698
487.58        64.69322
488.02        65.64478
488.46        63.89212
488.90        64.28564
489.34        65.57479
489.79        66.55242
490.23        65.89352
490.67        65.24121
491.11        64.59608
491.55        64.39783
491.99        64.62064
492.43        64.55056
492.88        64.20094
493.32        64.18021
493.76        64.45957
494.20        64.62675
494.64        64.63568
495.08        64.60222
495.52        64.54514
495.96        64.49843
496.41        64.46511
496.85        64.43308
497.29        64.30535
497.73        64.30223
498.17        63.67596
498.61        63.65645
499.05        63.94736
499.49        64.14132
499.93        63.97461
500.37        63.96397
500.82        64.05727
501.26        64.14159
501.70        64.19969
502.14        64.23662
502.58        64.26389
503.02        64.31113
503.46        64.37756
503.90        64.44575
504.34        64.47646
504.78        64.41007
505.22        64.23038
505.66        63.99625
506.10         63.8032
506.54        63.64191
506.98        63.49429
507.42        63.88622
507.86        63.93955
508.30        63.80226
508.74        64.02615
509.18        63.96227
509.62        63.88564
510.06        63.84938
510.50        63.88108
510.94         63.9389
511.38        63.98621
511.82        63.98819
512.26        63.93759
512.70         63.8593
513.14        63.78581
513.58        63.76572
514.02        63.81072
514.46         63.8968
514.90        64.01224
515.34        64.13808
515.78        64.25864
516.22        64.37796
516.66        64.45816
517.10        64.44014
517.54        64.31723
517.98         64.1074
518.42        63.88194
518.86        63.74046
519.30        63.70694
519.74         63.8038
520.18        63.95872
520.62        63.93798
521.06        63.77227
521.50        63.76001
521.93         63.9053
522.37        63.96293
522.81        63.93539
523.25        63.95375
523.69        64.02941
524.13        64.11938
524.57        64.21431
525.01        64.31358
525.45        64.38124
525.89        64.35918
526.32         64.2324
526.76        64.04379
527.20        63.81491
527.64        63.58697
528.08        63.38591
528.52        63.20826
528.96        63.09186
529.40        63.09184
529.83        63.20486
530.27        63.41429
530.71         63.6438
531.15        63.77706
531.59        63.78243
532.03        63.68489
532.46        63.52587
532.90        63.42065
533.34        63.38878
533.78        63.36727
534.22        63.33217
534.66        63.32539
535.09        63.29344
535.53         63.1062
535.97        62.82029
536.41        62.68425
536.85        62.72289
537.28        62.80949
537.72        62.91473
538.16        63.03995
538.60        63.16295
539.04        63.27882
539.47        63.36145
539.91        63.41462
540.35        63.42332
540.79        63.38822
541.22        63.32505
541.66         63.2797
542.10        63.26027
542.54        63.26844
542.97        63.27135
543.41        63.24627
543.85        63.17397
544.29        63.06118
544.72        62.95011
545.16        62.91727
545.60        62.96001
546.04        63.14652
546.47        63.37767
546.91        63.32165
547.35        63.04898
547.79        62.95583
548.22        63.06783
548.66        63.23478
549.10        63.43314
549.53        63.41433
549.97        63.22736
550.41        63.08073
550.84        63.06065
551.28        63.12102
551.72        63.17355
552.15        63.24041
552.59        63.38866
553.03        62.69273
553.46        63.08448
553.90        62.98923
554.34        62.96604
554.77        62.98965
555.21        63.07552
555.65        63.18201
556.08        63.26617
556.52        63.34217
556.96        63.36042
557.39         63.3204
557.83        63.22001
558.27        62.93118
558.70        62.53605
559.14         62.3817
559.57        62.45533
560.01        62.47754
560.45        62.45124
560.88        62.62867
561.32        62.94833
561.75        63.08005
562.19        63.03392
562.63        62.87917
563.06        62.71365
563.50        62.83044
563.93        63.10293
564.37        63.18272
564.80        63.07547
565.24        62.88336
565.68        62.51953
566.11        63.10242
566.55        62.38539
566.98        62.21039
567.42        62.04623
567.85          62.187
568.29        62.57653
568.72        62.88379
569.16        63.16348
569.60         63.2579
570.03        63.34887
570.47        63.57218
570.90        63.99883
571.34        62.94838
571.77        63.51237
572.21        63.54383
572.64        63.42953
573.08        63.63846
573.51        63.02977
573.95        63.02836
574.38        63.43903
574.82        63.61214
