SpectraSmart Spectrum 2.9.0.0
--------- Device Information -----------
Spectrum Name :  反射率_0
Saving Time :  2024/04/27 00:36:45
Spectro-Module Model Name : SE2030-DUVN
Spectro-Module Serial Number : OS361AC55029948
Wavelength Start : 200
Wavelength End : 1025
Wavelength Unit : Wavelength(nm)
Spectrum Unit : Reflectance(%)
-----------Spectrum Setting ------------
Integration Time : 20ms
Average : 10
Boxcar : 0
Background removal :  enabled
linearity correction :  enabled
SC :  disabled
Intensity correction :  disabled
DWT denoise :  enabled
savitzky-golay :  disabled
FFT :  disabled
Running average :  disabled
Kalman :  disabled
High pass :  disabled
---------------BEGIN--------------------
Wavelength(nm)             Reflectance(%)
200.29               0
200.75        43.16209
201.21        42.30136
201.67        41.99735
202.13        42.00968
202.58        42.15789
203.04        42.89299
203.50        44.03304
203.96        44.65134
204.42        44.23185
204.88         42.6862
205.34        41.08766
205.80        41.61066
206.26        44.27142
206.72        47.67402
207.18         50.4685
207.64        51.66811
208.10        51.40077
208.55        50.48977
209.01        48.20348
209.47         45.1505
209.93        43.19363
210.39        42.42257
210.85        43.18641
211.31        46.32018
211.77        53.13936
212.23        68.48174
212.69        105.9524
213.14        165.8329
213.60        157.1571
214.06        110.1315
214.52        79.64548
214.98        65.94842
215.44        59.77761
215.90        55.97674
216.36        53.86109
216.81        53.14425
217.27        54.03999
217.73        58.14988
218.19        64.25603
218.65        65.18314
219.11        59.35981
219.57        51.26848
220.02        46.65184
220.48        49.02541
220.94        58.18916
221.40        75.66766
221.86        99.72771
222.32        111.3838
222.77        97.67133
223.23        72.63487
223.69        51.47838
224.15        42.16752
224.61        41.71527
225.06        45.21298
225.52        49.48436
225.98        51.37284
226.44        50.63024
226.90        48.57513
227.36        46.02448
227.81        44.22483
228.27         43.6701
228.73         43.6227
229.19        43.79026
229.65        43.92242
230.10        43.92677
230.56        44.05191
231.02        44.10265
231.48        43.73828
231.93        42.96212
232.39        42.08627
232.85        41.49964
233.31         41.8378
233.77        43.06816
234.22        44.92618
234.68          46.911
235.14        48.33204
235.60        48.99314
236.05        49.20226
236.51        48.96198
236.97        48.36313
237.43        47.59201
237.88        46.62951
238.34        46.15648
238.80        47.58411
239.26        51.51497
239.71        58.66839
240.17        68.12858
240.63        76.37357
241.08        80.82853
241.54        80.52146
242.00        78.10524
242.46        80.29123
242.91        91.66884
243.37         114.388
243.83        149.6423
244.28        182.0329
244.74        187.2613
245.20        164.1709
245.66         132.875
246.11        112.1838
246.57        103.4254
247.03        101.4897
247.48        100.5414
247.94        92.86549
248.40        80.83817
248.85        69.57903
249.31        62.61913
249.77        61.47429
250.22        65.41283
250.68        73.87513
251.14        85.26082
251.59        92.33347
252.05        90.80313
252.51         84.2671
252.96         76.1629
253.42        70.28342
253.88        66.98082
254.33        64.60805
254.79        64.47804
255.25        67.41982
255.70        72.75563
256.16         79.9978
256.62        85.92454
257.07        85.66798
257.53        80.87903
257.99        74.68266
258.44        69.51828
258.90        67.71893
259.35        68.13884
259.81        69.89501
260.27        71.65657
260.72        71.90026
261.18        70.79631
261.63        68.73599
262.09         66.7402
262.55          65.278
263.00        64.24867
263.46        63.57376
263.91        62.68674
264.37        61.26632
264.83        59.31913
265.28         57.0769
265.74        55.11475
266.19        53.79079
266.65        53.18677
267.11        52.99586
267.56        52.93536
268.02        52.57713
268.47        51.79241
268.93        50.77444
269.38        49.54641
269.84        48.20551
270.30        46.81406
270.75        45.34142
271.21        44.02505
271.66        43.16381
272.12        42.78949
272.57        42.78017
273.03        42.83006
273.48        42.42327
273.94         41.5084
274.39        40.22659
274.85        38.91504
275.31        37.89701
275.76        37.22157
276.22        36.80638
276.67        36.48417
277.13        36.12512
277.58        35.62789
278.04        35.06683
278.49        34.44433
278.95        33.87848
279.40         33.3378
279.86        32.86721
280.31        32.33762
280.77         31.6829
281.22        30.88277
281.68        30.05696
282.13        29.33055
282.59        28.95951
283.04        28.92863
283.50        29.16186
283.95        29.48145
284.41        29.61551
284.86        29.48898
285.32        29.21892
285.77        28.89661
286.22        28.71871
286.68        28.72894
287.13        28.82004
287.59        28.96741
288.04        29.09097
288.50        29.18117
288.95        29.23605
289.41        29.25143
289.86        29.14358
290.32        28.95804
290.77        28.71878
291.22        28.52576
291.68          28.512
292.13        28.70732
292.59        29.10823
293.04        29.68922
293.50        30.41829
293.95        31.26922
294.40        32.26093
294.86         33.3778
295.31          34.583
295.77        35.86964
296.22        37.20902
296.68        38.62852
297.13        40.16392
297.58        41.82164
298.04        43.58693
298.49        45.38767
298.95        47.13279
299.40        48.78684
299.85        50.37753
300.31         51.9797
300.76        53.68824
301.21        55.52966
301.67        57.48595
302.12        59.45499
302.58        61.36823
303.03        63.16713
303.48        64.92326
303.94        66.71021
304.39        68.56583
304.84        70.53163
305.30         72.5832
305.75        74.66566
306.20        76.79315
306.66        78.94987
307.11        81.07761
307.57        83.11378
308.02        84.85138
308.47        86.29788
308.93        87.52736
309.38         88.6593
309.83        90.00105
310.29        91.62048
310.74        93.42432
311.19        95.23546
311.65        96.72874
312.10        97.79137
312.55        98.50879
313.00        99.07137
313.46         99.7822
313.91        100.6966
314.36         101.761
314.82        102.8049
315.27        103.5742
315.72        103.9916
316.18         104.171
316.63        104.2799
317.08        104.6235
317.53        105.2727
317.99        106.1241
318.44         107.007
318.89        107.6115
319.35        107.8543
319.80        107.8358
320.25        107.7296
320.70        107.8148
321.16        108.1647
321.61        108.7364
322.06        109.3685
322.51        109.8092
322.97        109.9736
323.42        109.9355
323.87        109.8884
324.32        110.1663
324.78        110.7971
325.23        111.7588
325.68         112.679
326.13        112.9547
326.59        112.4614
327.04        111.4296
327.49         110.339
327.94        109.9703
328.39        110.5097
328.85        111.6943
329.30        113.2152
329.75         114.236
330.20        114.4783
330.66        114.1531
331.11        113.6304
331.56         113.431
332.01        113.7267
332.46        114.3164
332.92        114.9851
333.37        115.5558
333.82        115.8769
334.27        116.0868
334.72        116.2145
335.17         116.272
335.63        116.2938
336.08        116.3263
336.53        116.4975
336.98        117.0779
337.43        118.1019
337.88        119.4615
338.34        120.9119
338.79        122.1566
339.24        123.0048
339.69        123.5295
340.14        123.7471
340.59        123.7201
341.05         123.552
341.50        123.2395
341.95        122.9669
342.40        123.0141
342.85         123.444
343.30         124.195
343.75        125.1158
344.20        125.9253
344.66         126.526
345.11        126.9773
345.56        127.3047
346.01         127.568
346.46        127.8084
346.91        128.0057
347.36         128.194
347.81        128.4505
348.26        128.7711
348.72          129.11
349.17        129.4371
349.62        129.7379
350.07        129.9872
350.52        130.2187
350.97        130.2709
351.42        129.8923
351.87        129.0924
352.32        127.9775
352.77        126.9345
353.22        126.5233
353.67        126.8306
354.13        127.6844
354.58          128.67
355.03        129.0408
355.48        128.5999
355.93        127.5605
356.38        126.3522
356.83         125.632
357.28        125.5286
357.73        125.7988
358.18        126.0761
358.63        125.7843
359.08        124.7872
359.53        123.3204
359.98        121.6702
360.43        120.2286
360.88        119.1099
361.33         118.196
361.78         117.388
362.23        116.5433
362.68        115.6246
363.13        114.7058
363.58         113.826
364.03        113.0181
364.48        112.2793
364.93        111.5658
365.38        110.8533
365.83        110.1281
366.28        109.3846
366.73        108.6319
367.18        107.8612
367.63         107.052
368.08        106.2072
368.53        105.3422
368.98        104.4854
369.43        103.6782
369.88        102.9309
370.33        102.2289
370.78        101.5622
371.23        100.9204
371.68         100.293
372.13        99.67487
372.58        99.05052
373.03        98.39111
373.48        97.68698
373.93        96.94664
374.38        96.16908
374.83        95.36453
375.28        94.54693
375.72        93.69614
376.17        92.90908
376.62         92.2138
377.07        91.62654
377.52        91.16515
377.97        90.75578
378.42        90.29008
378.87        89.75047
379.32        89.13256
379.77        88.60174
380.22        88.40314
380.67        88.54161
381.11        88.96622
381.56        89.28514
382.01        88.94131
382.46        87.86768
382.91        86.32276
383.36        84.78972
383.81        83.92867
384.26        83.84492
384.71        84.30685
385.15        85.00654
385.60         85.4037
386.05        85.31963
386.50         84.9133
386.95        84.28675
387.40        83.60715
387.85        82.96007
388.29        82.24194
388.74        81.61015
389.19        81.07803
389.64        80.64441
390.09        80.31584
390.54        80.03432
390.98        79.67419
391.43        79.26046
391.88        78.81606
392.33        78.42091
392.78        78.16167
393.23        78.03471
393.67        78.03338
394.12        78.12186
394.57        77.91474
395.02        77.46593
395.47        77.22597
395.91        77.19009
396.36        76.94768
396.81        76.52528
397.26        76.17605
397.71        75.92233
398.15        75.65668
398.60         75.4598
399.05        75.27154
399.50        75.10224
399.95        75.02264
400.39        75.00806
400.84         74.8718
401.29        74.60014
401.74        74.29113
402.18        73.96609
402.63        73.54678
403.08        73.14196
403.53        72.91706
403.97        72.88216
404.42        72.98867
404.87        73.12892
405.32        73.06808
405.76        72.74515
406.21        72.42669
406.66        72.15511
407.11        71.63414
407.55        71.10177
408.00        71.33585
408.45        72.17853
408.90        72.57894
409.34        72.33475
409.79         71.8182
410.24        71.23429
410.68        70.84226
411.13          70.719
411.58        70.69508
412.03        70.68054
412.47        70.61263
412.92        70.44066
413.37        70.22363
413.81        70.01453
414.26        69.95688
414.71        70.04557
415.15        70.25337
415.60        70.49962
416.05        70.72966
416.49        70.91024
416.94        71.04073
417.39        71.11589
417.83        71.11425
418.28         71.0498
418.73        70.93346
419.17        70.80824
419.62        70.74965
420.07        70.76035
420.51        70.79001
420.96        70.85207
421.41        70.85403
421.85        70.75037
422.30        70.79034
422.74        70.83373
423.19        70.44975
423.64        69.76187
424.08        69.56468
424.53        69.87962
424.98        70.06351
425.42        70.08265
425.87        70.46046
426.31        71.03332
426.76        70.92186
427.21        70.26495
427.65         70.0758
428.10        70.33902
428.54        70.39981
428.99        70.29356
429.44        70.07484
429.88        69.96297
430.33        70.64037
430.77        71.71817
431.22        72.34271
431.66        72.29353
432.11        71.41636
432.56        70.14239
433.00        69.81756
433.45         70.6148
433.89         71.4355
434.34        71.54527
434.78        72.33501
435.23        71.21989
435.67        69.54549
436.12        70.09407
436.57        70.38242
437.01        71.07102
437.46        71.40792
437.90        71.40834
438.35        70.33043
438.79        70.60069
439.24         70.3928
439.68        70.36572
440.13        70.71527
440.57         71.3261
441.02        71.18316
441.46        70.46686
441.91         71.0418
442.35         72.4001
442.80         72.2852
443.24        70.96901
443.69        70.88058
444.13        71.90307
444.58        72.37557
445.02        71.84918
445.47        71.65334
445.91        71.75452
446.36        71.87765
446.80        72.01379
447.24        72.22877
447.69        72.45268
448.13        72.54797
448.58        72.50518
449.02        72.33443
449.47         72.1137
449.91        71.94019
450.36        71.86969
450.80        71.85431
451.25        71.89592
451.69        71.93626
452.13        71.97805
452.58        72.03364
453.02        72.10265
453.47        72.18914
453.91        72.27016
454.36        72.33694
454.80        72.37386
455.24        72.24676
455.69        71.94415
456.13        71.77206
456.58        71.71484
457.02        70.95384
457.46        70.41766
457.91        70.55116
458.35        71.27299
458.79        71.33256
459.24         70.7296
459.68        70.01053
460.13        69.47585
460.57        69.34449
461.01        69.73765
461.46         69.9878
461.90         70.9539
462.34        71.35622
462.79        70.87973
463.23        71.11404
463.68         71.6943
464.12        71.62644
464.56        70.88129
465.01        69.99261
465.45        69.19611
465.89         69.0161
466.34        69.32223
466.78        69.52396
467.22        69.52528
467.67        69.09542
468.11        68.78114
468.55        68.89851
468.99        69.43962
469.44        69.53982
469.88        69.16426
470.32        68.83717
470.77        68.65228
471.21        68.51504
471.65        68.44418
472.10        68.47493
472.54        68.55393
472.98        68.57599
473.42        68.51108
473.87        68.49031
474.31        68.45972
474.75        68.20422
475.20        67.83858
475.64        67.79691
476.08        68.08557
476.52         68.1257
476.97        67.82887
477.41        67.98611
477.85        68.40704
478.29        67.67931
478.74        67.79191
479.18        68.44667
479.62        68.16193
480.06        68.21931
480.50        68.00704
480.95        67.78488
481.39        67.60453
481.83        67.37281
482.27        67.39728
482.72        67.77573
483.16        67.46072
483.60        67.55376
484.04        67.69444
484.48        67.93793
484.93        68.10662
485.37        67.88564
485.81        67.17295
486.25        67.11727
486.69        69.19606
487.14        69.78293
487.58        67.06996
488.02        67.90034
488.46        66.89706
488.90        66.79288
489.34        67.64623
489.79        68.47657
490.23        67.98139
490.67        67.55563
491.11        67.00609
491.55         66.8657
491.99        67.07821
492.43        66.99265
492.88        66.62799
493.32        66.50919
493.76        66.63908
494.20        66.71931
494.64        66.71911
495.08        66.70736
495.52        66.69416
495.96        66.70646
496.41        66.73195
496.85        66.76424
497.29        66.66956
497.73        66.62581
498.17        65.88416
498.61        65.75344
499.05         66.0086
499.49         66.3327
499.93        66.32011
500.37        66.34756
500.82        66.46394
501.26        65.74522
501.70        66.17339
502.14        66.39485
502.58        66.37432
503.02        66.52194
503.46        66.65395
503.90        66.80372
504.34        66.89434
504.78        66.82355
505.22        66.56657
505.66        66.22917
506.10        65.93302
506.54        65.63721
506.98        65.33348
507.42        65.84655
507.86        65.71901
508.30        65.75345
508.74        65.88097
509.18        65.85941
509.62        65.80853
510.06        65.75597
510.50        65.72903
510.94         65.6899
511.38        65.65383
511.82        65.65936
512.26         65.7099
512.70        65.80399
513.14        65.90379
513.58        65.94358
514.02        65.91157
514.46        65.82395
514.90        65.73525
515.34         65.7361
515.78        65.83939
516.22         66.0073
516.66        66.17369
517.10        66.23331
517.54        66.16256
517.98        66.00481
518.42        65.80249
518.86        65.62286
519.30        65.49538
519.74        65.40064
520.18        65.35574
520.62        65.38507
521.06        65.48501
521.50        65.65372
521.93        65.83791
522.37        65.92538
522.81        65.89985
523.25        65.78182
523.69        65.64152
524.13         65.5955
524.57        65.66329
525.01        65.80098
525.45        65.93707
525.89        65.95555
526.32        65.82514
526.76        65.61368
527.20        65.36851
527.64        65.16651
528.08        65.03782
528.52        64.95647
528.96        64.93605
529.40        64.99809
529.83        65.12966
530.27          65.329
530.71         65.5252
531.15        65.60925
531.59        65.56069
532.03        65.40744
532.46        65.21021
532.90        65.11671
533.34        65.14542
533.78        65.21179
534.22        65.27064
534.66        65.33237
535.09        65.33001
535.53        65.14355
535.97        64.81294
536.41        64.56687
536.85        64.43767
537.28        64.30792
537.72        64.21815
538.16        64.27578
538.60        64.47634
539.04        64.80103
539.47        65.13497
539.91        65.29497
540.35        65.25674
540.79        65.16819
541.22        65.07925
541.66        65.00066
542.10        64.95535
542.54        64.97781
542.97        65.02094
543.41        65.01337
543.85        64.93349
544.29        64.81888
544.72        64.70373
545.16        64.65968
545.60        64.68723
546.04         64.8122
546.47        64.98755
546.91        65.04317
547.35        65.00789
547.79        65.08629
548.22        65.25102
548.66        65.36255
549.10        65.42644
549.53        65.28156
549.97        65.00121
550.41        64.74731
550.84        64.61464
551.28        64.63431
551.72         64.7617
552.15        64.91138
552.59        65.07574
553.03        64.80639
553.46        65.22765
553.90        64.86156
554.34        65.06162
554.77        64.93108
555.21        64.85346
555.65        64.87133
556.08        64.96963
556.52        65.21034
556.96        65.46523
557.39         65.2923
557.83        65.07509
558.27        64.72922
558.70        64.44717
559.14        64.31197
559.57        64.31252
560.01        64.35717
560.45        64.41808
560.88        64.56956
561.32        64.80376
561.75        64.95937
562.19        65.03004
562.63         65.0764
563.06        65.10361
563.50        65.03609
563.93        64.86987
564.37        64.94527
564.80        65.20869
565.24        65.06159
565.68        64.43669
566.11        64.99083
566.55        64.41061
566.98         64.3487
567.42        64.23627
567.85        64.39674
568.29         64.8104
568.72        65.24675
569.16        65.68311
569.60        65.91115
570.03            65.9
570.47        65.91588
570.90        66.08012
571.34        65.28088
571.77        65.81851
572.21        66.01936
572.64        66.02719
573.08        66.26995
573.51        65.51028
573.95        65.56943
574.38        66.24306
574.82        66.18373
