SpectraSmart Spectrum 2.9.0.0
--------- Device Information -----------
Spectrum Name :  反射率_0
Saving Time :  2024/04/27 00:36:05
Spectro-Module Model Name : SE2030-DUVN
Spectro-Module Serial Number : OS361AC55029948
Wavelength Start : 200
Wavelength End : 1025
Wavelength Unit : Wavelength(nm)
Spectrum Unit : Reflectance(%)
-----------Spectrum Setting ------------
Integration Time : 20ms
Average : 10
Boxcar : 0
Background removal :  enabled
linearity correction :  enabled
SC :  disabled
Intensity correction :  disabled
DWT denoise :  enabled
savitzky-golay :  disabled
FFT :  disabled
Running average :  disabled
Kalman :  disabled
High pass :  disabled
---------------BEGIN--------------------
Wavelength(nm)             Reflectance(%)
200.29               0
200.75        36.31056
201.21        35.29545
201.67        34.16467
202.13        32.92098
202.58        31.46354
203.04        29.73901
203.50        28.32065
203.96         29.0323
204.42        32.87589
204.88        39.46455
205.34        46.70354
205.80        50.74961
206.26        50.45418
206.72        47.02269
207.18        42.61697
207.64        38.85184
208.10        35.65716
208.55        32.47525
209.01         28.6298
209.47        25.52573
209.93        24.96564
210.39        26.43012
210.85        28.80049
211.31        32.09513
211.77        37.50377
212.23        48.39773
212.69        74.57769
213.14        119.3236
213.60        118.1037
214.06        86.97934
214.52        64.68917
214.98        52.48674
215.44        44.29929
215.90        36.62796
216.36        30.06149
216.81        26.15692
217.27        25.78842
217.73        29.81848
218.19        37.17272
218.65        40.24585
219.11        36.20561
219.57        29.56918
220.02         25.9899
220.48        29.02727
220.94        38.91304
221.40        57.15211
221.86        82.70943
222.32        97.63816
222.77        87.91137
223.23          66.134
223.69        46.36571
224.15        36.27806
224.61        33.78687
225.06        34.75165
225.52        36.98178
225.98        38.39433
226.44        38.69938
226.90        38.79131
227.36        38.78823
227.81        38.70048
228.27        38.62663
228.73        38.17498
229.19         37.7607
229.65        37.98424
230.10        38.82402
230.56        40.25202
231.02         41.3667
231.48        40.73798
231.93        38.36948
232.39        35.17817
232.85        32.53731
233.31         32.2582
233.77        34.40361
234.22        38.28452
234.68        42.65626
235.14         45.6394
235.60        46.66778
236.05        46.29274
236.51        45.04057
236.97        44.10645
237.43        44.07501
237.88        44.57332
238.34        45.60293
238.80        47.46404
239.26        50.35973
239.71        55.12228
240.17        61.21208
240.63        66.63815
241.08        69.99019
241.54        70.27125
242.00        69.65511
242.46        73.61151
242.91        85.97618
243.37        109.1769
243.83        143.4926
244.28        171.2234
244.74        168.3713
245.20        137.2832
245.66        100.8957
246.11        78.62898
246.57         71.0159
247.03        71.72256
247.48        77.11935
247.94         81.0024
248.40        81.37268
248.85        80.50219
249.31        79.58401
249.77        78.48149
250.22        76.91204
250.68        74.09208
251.14        69.80645
251.59        65.37513
252.05        62.83199
252.51        62.90342
252.96        63.96951
253.42        64.45042
253.88        64.17411
254.33        63.21304
254.79        63.69339
255.25         67.2345
255.70        73.33027
256.16        81.11478
256.62        87.14635
257.07        86.42304
257.53        80.84028
257.99        73.86811
258.44        68.12493
258.90        65.97775
259.35        66.23527
259.81        67.94971
260.27         69.7461
260.72        70.04705
261.18        69.00384
261.63        67.03052
262.09        65.15026
262.55        63.85023
263.00        63.02919
263.46        62.58673
263.91        61.93665
264.37        60.73145
264.83        58.95798
265.28         56.8321
265.74        54.95267
266.19        53.70964
266.65        53.19064
267.11         53.1022
267.56        53.08855
268.02        52.60472
268.47        51.52598
268.93        50.09348
269.38        48.50777
269.84        47.13221
270.30        46.05533
270.75        45.13836
271.21         44.3945
271.66        43.78562
272.12        43.26786
272.57        42.82606
273.03        42.31576
273.48        41.48693
273.94        40.37301
274.39        39.03882
274.85        37.74597
275.31        36.71186
275.76        35.96402
276.22        35.47277
276.67        35.10243
277.13        34.75271
277.58         34.3302
278.04         33.8814
278.49        33.39776
278.95        32.98718
279.40        32.60304
279.86        32.27813
280.31        31.86769
280.77         31.2836
281.22        30.50366
281.68        29.65768
282.13        28.87925
282.59        28.43337
283.04        28.31597
283.50        28.45807
283.95        28.70291
284.41        28.80796
284.86        28.70877
285.32        28.51693
285.77        28.30628
286.22        28.24851
286.68        28.37455
287.13         28.5691
287.59        28.81637
288.04        29.05085
288.50        29.25961
288.95        29.43864
289.41        29.54045
289.86        29.41912
290.32        29.12467
290.77        28.70991
291.22        28.36209
291.68         28.3425
292.13        28.70015
292.59        29.38837
293.04        30.28611
293.50        31.20934
293.95        32.09153
294.40        32.99366
294.86        33.97961
295.31        35.13703
295.77        36.49488
296.22        37.99377
296.68        39.59468
297.13        41.23158
297.58        42.89276
298.04        44.59715
298.49         46.3605
298.95        48.22567
299.40        50.17307
299.85         52.1756
300.31        54.18851
300.76        56.12382
301.21        57.97767
301.67        59.80135
302.12        61.59439
302.58        63.45261
303.03        65.34334
303.48         67.2558
303.94        69.21804
304.39        71.19805
304.84        73.21268
305.30        75.28759
305.75        77.30493
306.20        79.17879
306.66        80.91588
307.11        82.50249
307.57        84.06885
308.02          85.702
308.47          87.438
308.93        89.23089
309.38        90.97215
309.83        92.62135
310.29        94.16322
310.74        95.61626
311.19        96.93298
311.65        98.00703
312.10        98.81048
312.55        99.36492
313.00         99.8468
313.46        100.5396
313.91        101.4754
314.36        102.6145
314.82        103.7456
315.27         104.533
315.72        104.8816
316.18        104.9257
316.63        104.8626
317.08        105.0534
317.53        105.5888
317.99        106.3475
318.44         107.173
318.89        107.7786
319.35        108.0749
319.80        108.1524
320.25        108.1351
320.70        108.2193
321.16        108.4623
321.61        108.8491
322.06        109.2642
322.51        109.5348
322.97        109.6074
323.42        109.5392
323.87        109.5153
324.32        109.8544
324.78        110.5697
325.23        111.6356
325.68         112.665
326.13        113.0253
326.59        112.5779
327.04        111.5573
327.49        110.4296
327.94        109.9598
328.39        110.3408
328.85        111.3182
329.30        112.6413
329.75        113.5794
330.20        113.8834
330.66        113.7379
331.11        113.4408
331.56         113.391
332.01        113.7244
332.46          114.27
332.92         114.854
333.37        115.3769
333.82         115.713
334.27        115.9724
334.72        116.1681
335.17        116.2877
335.63        116.3582
336.08        116.4463
336.53        116.6713
336.98        117.2856
337.43        118.3203
337.88        119.6569
338.34        121.0918
338.79        122.4023
339.24        123.4061
339.69        124.1598
340.14        124.5812
340.59        124.5718
341.05        124.2158
341.50        123.5721
341.95        122.9681
342.40         122.903
342.85        123.4837
343.30        124.5721
343.75        125.8981
344.20        126.9835
344.66        127.6638
345.11        128.0545
345.56        128.2328
346.01        128.3415
346.46        128.4601
346.91        128.5483
347.36        128.6445
347.81        128.8358
348.26         129.122
348.72        129.4656
349.17        129.8416
349.62        130.2348
350.07        130.6097
350.52        130.9866
350.97         131.176
351.42        130.8847
351.87         130.112
352.32        128.9795
352.77        127.8885
353.22        127.4222
353.67        127.6817
354.13        128.4906
354.58        129.4573
355.03         129.873
355.48        129.5373
355.93        128.6407
356.38        127.5724
356.83        126.9255
357.28        126.8207
357.73        127.0531
358.18        127.2624
358.63        126.8854
359.08        125.8061
359.53         124.249
359.98        122.5806
360.43        121.3168
360.88        120.5694
361.33         120.171
361.78        119.8566
362.23        119.2129
362.68        118.1516
363.13        116.8397
363.58        115.4879
364.03        114.4018
364.48        113.6511
364.93        113.1061
365.38        112.6522
365.83        112.1241
366.28        111.4591
366.73        110.7184
367.18        109.9015
367.63         108.994
368.08         108.016
368.53        106.9784
368.98        105.9502
369.43        105.0451
369.88        104.2936
370.33        103.6725
370.78         103.141
371.23        102.6289
371.68        102.0999
372.13        101.5514
372.58        100.9826
373.03        100.3943
373.48        99.77531
373.93        99.11513
374.38         98.3727
374.83         97.4983
375.28        96.50917
375.72        95.42992
376.17        94.41459
376.62        93.57064
377.07        92.93487
377.52         92.4908
377.97         92.1666
378.42        91.85294
378.87        91.50671
379.32        91.11471
379.77        90.75728
380.22        90.55503
380.67        90.49912
381.11        90.57304
381.56        90.49929
382.01        89.93531
382.46        88.87315
382.91        87.50358
383.36        86.20096
383.81        85.46523
384.26        85.36459
384.71        85.72305
385.15        86.27777
385.60        86.56332
386.05        86.42899
386.50        85.99955
386.95        85.38044
387.40         84.7464
387.85        84.17745
388.29        83.57993
388.74         83.0695
389.19        82.58915
389.64        82.13856
390.09        81.74769
390.54        81.42448
390.98        81.14948
391.43         80.9383
391.88        80.75101
392.33        80.59473
392.78        80.37333
393.23        80.05614
393.67         79.9446
394.12        79.98782
394.57        79.23244
395.02        78.01629
395.47        78.00841
395.91        79.02351
396.36        79.22818
396.81        78.53124
397.26        77.97228
397.71        77.65491
398.15        77.28283
398.60        76.97472
399.05        76.68172
399.50        76.42011
399.95        76.33764
400.39        76.38039
400.84        76.20568
401.29        75.81153
401.74        75.46933
402.18        75.19704
402.63        74.77081
403.08        74.30869
403.53        74.08372
403.97          74.113
404.42        74.29877
404.87        74.50627
405.32        74.51068
405.76        74.25472
406.21        73.89946
406.66        73.52121
407.11        73.16615
407.55        72.97215
408.00        73.00802
408.45        73.22067
408.90        73.57185
409.34        73.80637
409.79         73.3101
410.24        72.33237
410.68        71.84436
411.13        71.93371
411.58        72.06892
412.03        72.11677
412.47        72.09991
412.92         71.9481
413.37          71.692
413.81        71.41314
414.26        71.29613
414.71        71.34499
415.15        71.53695
415.60        71.75641
416.05        71.88517
416.49        71.88882
416.94        71.79755
417.39        71.68536
417.83        71.64854
418.28        71.71623
418.73        71.85126
419.17         72.0069
419.62        72.11359
420.07        72.13596
420.51        72.07221
420.96        71.98029
421.41        71.85558
421.85        71.68686
422.30        71.64871
422.74        71.62319
423.19          71.331
423.64        70.83373
424.08        70.65372
424.53        70.82439
424.98        70.94883
425.42          71.005
425.87        71.40319
426.31        71.95134
426.76        71.71838
427.21           70.88
427.65        70.63435
428.10        70.98396
428.54        71.11478
428.99        71.06609
429.44        71.00595
429.88        71.06151
430.33         71.7766
430.77        72.75636
431.22        73.03626
431.66        72.56761
432.11        71.83932
432.56        71.17364
433.00        71.07697
433.45         71.7269
433.89        72.42062
434.34        72.46199
434.78        73.44001
435.23        73.36005
435.67        70.18781
436.12        71.16304
436.57        71.10993
437.01        71.95648
437.46        72.21894
437.90        71.90786
438.35         71.1328
438.79        71.26928
439.24        71.19396
439.68        71.26163
440.13        71.60152
440.57         72.1573
441.02        72.27769
441.46        72.01826
441.91        72.65488
442.35        73.72529
442.80        73.40632
443.24        72.00559
443.69        71.84795
444.13        72.85585
444.58        73.20641
445.02        72.84431
445.47        72.79591
445.91        73.09572
446.36        73.33304
446.80        73.47363
447.24        73.68356
447.69        73.91135
448.13        73.89411
448.58        73.71814
449.02        73.74625
449.47         73.9571
449.91        73.96965
450.36        73.79939
450.80          73.645
451.25        73.57283
451.69        73.52565
452.13        73.52907
452.58        73.59132
453.02          73.673
453.47        73.71619
453.91        73.68598
454.36        73.60616
454.80        73.52438
455.24        73.30685
455.69        72.94184
456.13        72.86564
456.58        73.15649
457.02        71.95528
457.46        71.85319
457.91         71.8744
458.35        72.46515
458.79        72.44667
459.24        71.83739
459.68        71.15498
460.13        70.60218
460.57        70.36646
461.01        70.56763
461.46        70.72023
461.90         70.6338
462.34        71.98195
462.79        71.40991
463.23        71.75317
463.68         71.8853
464.12        71.69163
464.56        71.14849
465.01        70.28411
465.45        69.41382
465.89        69.29038
466.34        69.72044
466.78        70.06208
467.22        70.29165
467.67        69.23411
468.11        69.49801
468.55        69.44617
468.99        69.72528
469.44        69.66451
469.88        69.26787
470.32        68.92683
470.77        68.71214
471.21        68.59298
471.65        68.57265
472.10         68.6665
472.54        68.80549
472.98        68.83366
473.42          68.702
473.87        68.62669
474.31        68.54607
474.75        68.04782
475.20        67.35678
475.64        67.34719
476.08        67.92287
476.52        68.02094
476.97        67.55991
477.41        67.47343
477.85        67.49533
478.29         67.0098
478.74        67.99506
479.18        67.93888
479.62        67.58876
480.06        67.42506
480.50        67.43758
480.95         67.6698
481.39        68.12305
481.83        67.12854
482.27        67.42247
482.72        67.59631
483.16        67.22848
483.60        67.02518
484.04        67.22447
484.48        67.61559
484.93        68.03481
485.37        67.88335
485.81        66.73791
486.25        66.83809
486.69        69.19514
487.14        70.14173
487.58        67.35443
488.02        67.68172
488.46         66.3689
488.90        66.48654
489.34        67.63654
489.79        68.13849
490.23        67.82153
490.67        67.07777
491.11        66.24067
491.55        66.15543
491.99        66.71856
492.43        66.77285
492.88        66.28722
493.32        66.10986
493.76        66.27604
494.20        66.36909
494.64        66.36301
495.08        66.40836
495.52        66.47394
495.96         66.4225
496.41        66.27566
496.85        66.24835
497.29         66.2262
497.73         66.2313
498.17        65.49748
498.61        65.44102
499.05        65.79548
499.49         66.0115
499.93        65.77788
500.37         65.8539
500.82        66.21217
501.26        65.69956
501.70        65.90495
502.14        65.92804
502.58        66.18128
503.02         66.2816
503.46        66.21346
503.90        66.15487
504.34        66.08917
504.78        65.94518
505.22          65.731
505.66        65.48666
506.10        65.28049
506.54        65.14687
506.98        65.08604
507.42        65.20084
507.86        65.48706
508.30        65.22923
508.74        65.53343
509.18        65.50129
509.62        65.46819
510.06        65.41125
510.50         65.3448
510.94        65.25099
511.38        65.14938
511.82        65.10603
512.26        65.12945
512.70        65.20917
513.14        65.30465
513.58         65.3453
514.02        65.31947
514.46        65.24823
514.90        65.17329
515.34        65.18478
515.78        65.29705
516.22        65.41056
516.66        65.49317
517.10        65.63789
517.54        65.76042
517.98        65.57042
518.42        65.14009
518.86        64.86707
519.30        64.79729
519.74        64.72141
520.18        64.65204
520.62        64.69119
521.06        64.83224
521.50        65.05285
521.93        65.27963
522.37        65.36707
522.81        65.29467
523.25        65.09908
523.69        64.88097
524.13        64.80197
524.57        64.89248
525.01        65.09452
525.45        65.31556
525.89        65.40427
526.32        65.31539
526.76        65.12397
527.20        64.88198
527.64        64.67402
528.08        64.53402
528.52        64.43372
528.96        64.38516
529.40        64.40942
529.83        64.49561
530.27        64.64452
530.71        64.79591
531.15         64.8565
531.59        64.80729
532.03        64.67074
532.46        64.49258
532.90        64.39478
533.34        64.39359
533.78          64.419
534.22        64.43796
534.66        64.47882
535.09        64.48103
535.53        64.31537
535.97         64.0296
536.41        63.86414
536.85        63.84642
537.28        63.85199
537.72        63.88063
538.16        63.98168
538.60        64.14106
539.04        64.33967
539.47        64.51476
539.91        64.61202
540.35        64.60506
540.79        64.51505
541.22        64.38623
541.66        64.31232
542.10        64.31142
542.54        64.36194
542.97         64.4202
543.41        64.44732
543.85        64.41729
544.29        64.35022
544.72        64.26556
545.16        64.20922
545.60        64.18065
546.04         64.2387
546.47        64.34724
546.91         64.3175
547.35        64.20985
547.79        64.29845
548.22        64.54908
548.66        64.76631
549.10        64.92641
549.53        64.84461
549.97         64.5894
550.41        64.33858
550.84        64.18373
551.28        64.16544
551.72        64.23532
552.15        64.24707
552.59        64.32918
553.03        64.03555
553.46         64.4087
553.90        64.31625
554.34        64.34815
554.77        64.27712
555.21        64.24793
555.65        64.29052
556.08        64.38745
556.52        64.53833
556.96        64.65411
557.39        64.62935
557.83        64.47592
558.27        64.20518
558.70        63.88624
559.14        63.75326
559.57        63.79189
560.01        63.75377
560.45         63.6729
560.88        63.88673
561.32        64.30431
561.75        64.44946
562.19        64.32843
562.63        64.10751
563.06        63.89883
563.50        63.97584
563.93         64.2168
564.37        64.27299
564.80        64.15888
565.24        63.99675
565.68        63.68362
566.11        64.34197
566.55        63.67773
566.98        63.51977
567.42        63.35509
567.85        63.65112
568.29        64.30619
568.72        64.69777
569.16        64.86507
569.60        65.01915
570.03        65.13165
570.47         65.2781
570.90        65.56022
571.34        64.69215
571.77        65.41268
572.21        65.59961
572.64        65.63074
573.08         65.9227
573.51        65.12376
573.95        65.19498
574.38        65.83457
574.82        65.96924
