SpectraSmart Spectrum 2.9.0.0
--------- Device Information -----------
Spectrum Name :  反射率_0
Saving Time :  2024/04/27 00:33:52
Spectro-Module Model Name : SE2030-DUVN
Spectro-Module Serial Number : OS361AC55029948
Wavelength Start : 200
Wavelength End : 1025
Wavelength Unit : Wavelength(nm)
Spectrum Unit : Reflectance(%)
-----------Spectrum Setting ------------
Integration Time : 20ms
Average : 10
Boxcar : 0
Background removal :  enabled
linearity correction :  enabled
SC :  disabled
Intensity correction :  disabled
DWT denoise :  enabled
savitzky-golay :  disabled
FFT :  disabled
Running average :  disabled
Kalman :  disabled
High pass :  disabled
---------------BEGIN--------------------
Wavelength(nm)             Reflectance(%)
200.29               0
200.75        53.72361
201.21        46.75722
201.67        40.57105
202.13        37.11795
202.58        36.21734
203.04        37.47228
203.50        40.87758
203.96        45.42578
204.42        49.94426
204.88        54.42223
205.34        57.43494
205.80        57.25716
206.26        54.02301
206.72        48.54743
207.18        43.16925
207.64        39.55394
208.10        37.57394
208.55        37.24747
209.01         37.8438
209.47        37.86013
209.93         36.9997
210.39        36.09462
210.85           36.57
211.31        40.14031
211.77        48.50611
212.23        67.23768
212.69        112.1759
213.14        180.6483
213.60        164.9699
214.06        106.7098
214.52         70.5359
214.98        55.02046
215.44        48.85236
215.90        46.15692
216.36        45.56082
216.81        45.83033
217.27        46.88727
217.73        50.38343
218.19        55.81182
218.65        58.03288
219.11        55.38349
219.57        50.55733
220.02        47.98487
220.48        51.09567
220.94        60.05526
221.40        76.13828
221.86        98.56757
222.32        111.8655
222.77        103.4443
223.23        84.28876
223.69        65.96028
224.15        54.54557
224.61        48.82199
225.06         45.9114
225.52        44.75944
225.98        44.22824
226.44        43.94374
226.90        44.18995
227.36        44.78159
227.81        45.26236
228.27        45.57754
228.73        45.58522
229.19        45.52218
229.65        45.78571
230.10        46.34671
230.56        47.05758
231.02        47.51815
231.48        47.14305
231.93        45.87349
232.39        44.26699
232.85        42.66532
233.31        41.53783
233.77        40.92971
234.22        40.69786
234.68        40.70318
235.14        40.87104
235.60        41.15979
236.05        41.69181
236.51        42.27674
236.97        42.48102
237.43        42.21206
237.88        41.58747
238.34        41.12072
238.80        41.97414
239.26        44.62913
239.71        49.42798
240.17        55.90511
240.63        62.19788
241.08        66.88676
241.54        69.55012
242.00        71.18136
242.46        74.73425
242.91        82.75919
243.37        95.66776
243.83        115.7476
244.28         140.098
244.74        156.8438
245.20         160.243
245.66         152.506
246.11        138.7868
246.57        121.8986
247.03        101.2971
247.48        79.15597
247.94        63.03839
248.40        56.36927
248.85        55.77412
249.31        57.61155
249.77        58.60092
250.22        58.11022
250.68        56.57801
251.14        54.96611
251.59        55.95553
252.05          60.401
252.51        66.47397
252.96        70.24813
253.42        69.05691
253.88         63.8761
254.33        56.44076
254.79        50.76597
255.25        49.90112
255.70        53.32964
256.16        59.59823
256.62        65.10539
257.07        64.68088
257.53        59.74042
257.99        53.54959
258.44        48.64305
258.90        47.20741
259.35         48.1353
259.81          50.359
260.27        52.39956
260.72        52.51595
261.18        50.91065
261.63        48.31752
262.09        45.85315
262.55        44.22434
263.00        43.36553
263.46        42.99781
263.91        42.63923
264.37        41.94304
264.83        40.85588
265.28        39.56719
265.74        38.40576
266.19        37.50714
266.65        36.93904
267.11        36.52287
267.56         36.1846
268.02        35.82467
268.47        35.40007
268.93        34.97345
269.38        34.45036
269.84        33.72918
270.30        32.80224
270.75        31.69502
271.21        30.62704
271.66        29.88596
272.12        29.52039
272.57        29.42713
273.03        29.36322
273.48        28.93476
273.94         28.1106
274.39        27.01344
274.85        25.93962
275.31         25.1838
275.76        24.78045
276.22        24.63828
276.67        24.57001
277.13        24.37381
277.58        23.97093
278.04        23.45937
278.49        22.90524
278.95        22.49308
279.40        22.21313
279.86        22.04559
280.31        21.86563
280.77         21.5794
281.22        21.15128
281.68        20.67712
282.13        20.22351
282.59        19.93368
283.04        19.80686
283.50         19.8049
283.95        19.86003
284.41        19.87024
284.86        19.80604
285.32        19.71943
285.77        19.63106
286.22         19.6148
286.68        19.68429
287.13        19.78325
287.59        19.90557
288.04        20.00981
288.50        20.09769
288.95        20.16202
289.41        20.20037
289.86         20.1597
290.32        20.06813
290.77         19.9336
291.22        19.83442
291.68        19.87334
292.13        20.07395
292.59        20.44499
293.04        20.92677
293.50        21.43258
293.95        21.94243
294.40        22.48922
294.86        23.16899
295.31        24.12145
295.77         25.3665
296.22          26.837
296.68        28.40002
297.13         29.8427
297.58        31.12642
298.04        32.31722
298.49         33.5326
298.95        34.97675
299.40        36.67793
299.85        38.55812
300.31        40.51094
300.76        42.36147
301.21        44.07529
301.67        45.73706
302.12        47.37423
302.58        49.09702
303.03        50.89957
303.48        52.76478
303.94        54.71862
304.39        56.75225
304.84        58.87135
305.30        61.07658
305.75         63.2677
306.20        65.36743
306.66        67.36301
307.11        69.23952
307.57        71.04068
308.02         72.7452
308.47         74.3819
308.93         75.9495
309.38        77.47028
309.83        79.08912
310.29        80.82519
310.74        82.63498
311.19        84.36533
311.65          85.733
312.10        86.65914
312.55         87.2252
313.00        87.65318
313.46        88.29793
313.91        89.22402
314.36        90.35909
314.82        91.51659
315.27        92.40076
315.72         92.9166
316.18        93.19139
316.63        93.35788
317.08        93.66573
317.53        94.18794
317.99        94.83539
318.44        95.53209
318.89        96.12907
319.35        96.57067
319.80        96.90445
320.25        97.17673
320.70        97.46079
321.16        97.77779
321.61        98.14057
322.06        98.49223
322.51         98.7542
322.97        98.90135
323.42        98.96524
323.87        99.06887
324.32         99.4305
324.78        100.0502
325.23        100.9313
325.68        101.7862
326.13        102.1455
326.59        101.9052
327.04        101.2369
327.49        100.4893
327.94        100.2468
328.39        100.6533
328.85        101.5046
329.30        102.6122
329.75        103.3862
330.20        103.6295
330.66         103.491
331.11        103.2214
331.56        103.1499
332.01        103.3943
332.46         103.822
332.92        104.2994
333.37        104.7695
333.82        105.1302
334.27         105.469
334.72          105.78
335.17        106.0262
335.63         106.215
336.08        106.4001
336.53        106.6916
336.98        107.3258
337.43        108.3305
337.88        109.5997
338.34        110.9208
338.79        112.0466
339.24        112.8151
339.69        113.3027
340.14        113.5123
340.59        113.4762
341.05        113.2915
341.50        112.9641
341.95        112.7068
342.40        112.8449
342.85        113.4354
343.30        114.3844
343.75          115.48
344.20        116.3458
344.66        116.8637
345.11        117.1358
345.56        117.2312
346.01        117.2783
346.46        117.3562
346.91        117.4373
347.36        117.5937
347.81        117.9526
348.26        118.5124
348.72        119.2173
349.17        119.9629
349.62        120.6115
350.07        121.1001
350.52        121.4703
350.97        121.6308
351.42        121.4534
351.87        120.9613
352.32        120.2118
352.77        119.4777
353.22        119.1563
353.67        119.3121
354.13        119.8318
354.58        120.4381
355.03        120.6143
355.48        120.2262
355.93        119.4261
356.38         118.511
356.83        117.9287
357.28        117.7727
357.73        117.8849
358.18        118.0144
358.63        117.7709
359.08        117.0559
359.53        116.0084
359.98        114.8442
360.43        113.8628
360.88        113.1358
361.33        112.5784
361.78        112.0299
362.23        111.2463
362.68        110.1949
363.13        108.9824
363.58        107.8044
364.03        106.9442
364.48         106.446
364.93         106.194
365.38        106.0018
365.83        105.5775
366.28        104.8448
366.73        103.9087
367.18        102.8777
367.63         101.918
368.08        101.0899
368.53        100.3412
368.98        99.67271
369.43         99.0858
369.88        98.56686
370.33        98.12778
370.78        97.71187
371.23         97.2204
371.68        96.62814
372.13        95.94095
372.58        95.23126
373.03        94.62473
373.48        94.13584
373.93        93.71622
374.38        93.25991
374.83        92.60471
375.28        91.72849
375.72        90.68837
376.17        89.65177
376.62        88.75153
377.07        88.04604
377.52         87.5207
377.97        87.12872
378.42        86.80387
378.87        86.51321
379.32        86.22903
379.77        86.02324
380.22        86.00377
380.67        86.14706
381.11        86.42983
381.56        86.53311
382.01         86.0376
382.46        84.92117
382.91        83.40435
383.36        81.91608
383.81        81.03495
384.26        80.84946
384.71        81.16272
385.15        81.70796
385.60         82.0085
386.05         81.9075
386.50        81.54577
386.95        80.99732
387.40        80.38642
387.85        79.78794
388.29        79.11471
388.74        78.54101
389.19        78.11212
389.64        77.83091
390.09        77.68871
390.54        77.59776
390.98        77.38232
391.43          77.041
391.88        76.60813
392.33        76.18848
392.78        75.86807
393.23        75.65163
393.67        75.64673
394.12        75.78465
394.57        75.39338
395.02        74.64249
395.47        74.54243
395.91         75.0104
396.36        74.99471
396.81        74.47585
397.26        74.06599
397.71        73.80592
398.15        73.51811
398.60        73.30738
399.05        73.00983
399.50        72.70023
399.95        72.82746
400.39        73.24287
400.84        73.07153
401.29        72.36688
401.74        71.95391
402.18         71.8942
402.63        71.68946
403.08        71.37614
403.53        71.20459
403.97        71.17483
404.42        71.22747
404.87        71.28159
405.32        71.18215
405.76        70.89693
406.21        70.56903
406.66        70.27393
407.11        70.02714
407.55        69.95172
408.00        70.20026
408.45         70.6647
408.90         71.0308
409.34        71.09496
409.79        70.63427
410.24        69.87044
410.68        69.43732
411.13        69.41965
411.58        69.48238
412.03        69.51944
412.47        69.49918
412.92        69.35834
413.37        69.14738
413.81        68.92019
414.26        68.81566
414.71        68.83286
415.15        68.95606
415.60        69.10815
416.05        69.23877
416.49         69.3285
416.94        69.38266
417.39        69.42444
417.83        69.47787
418.28        69.55112
418.73        69.62138
419.17        69.68919
419.62        69.76357
420.07        69.84049
420.51        69.90314
420.96        69.94718
421.41        69.93473
421.85        69.84891
422.30        69.70087
422.74        69.48654
423.19        69.48367
423.64        69.58783
424.08        69.38055
424.53        68.95435
424.98        68.85092
425.42        69.11718
425.87        69.60662
426.31        70.11028
426.76        69.97736
427.21         69.3467
427.65        69.22652
428.10        69.61815
428.54        69.75957
428.99        69.68209
429.44         69.6731
429.88        69.79892
430.33        70.21436
430.77        70.72126
431.22        71.03745
431.66         71.0507
432.11        70.70783
432.56        70.21633
433.00        70.03465
433.45        70.33601
433.89         71.0573
434.34        71.67883
434.78        72.25259
435.23        71.61131
435.67         69.8157
436.12        70.40617
436.57         70.4591
437.01        70.86289
437.46        71.04988
437.90         71.0635
438.35         70.3734
438.79        70.72835
439.24        70.77547
439.68        70.96786
440.13        71.21324
440.57        71.53078
441.02        71.74747
441.46        71.83464
441.91        72.38815
442.35        73.07552
442.80        72.83971
443.24         71.9217
443.69        71.96021
444.13        72.86047
444.58         73.2494
445.02        73.04275
445.47        73.01316
445.91        73.22772
446.36        73.36172
446.80        73.36849
447.24        73.90199
447.69        73.86195
448.13        73.98698
448.58        73.99232
449.02        74.02687
449.47         74.0746
449.91        73.98617
450.36        73.80527
450.80        73.59399
451.25        73.45226
451.69         73.4397
452.13        73.58234
452.58        73.83468
453.02        74.12416
453.47        74.34219
453.91        74.44101
454.36        74.45873
454.80        74.36449
455.24        74.09403
455.69        73.67914
456.13        73.18019
456.58        72.76606
457.02        72.38483
457.46        72.18987
457.91        72.57425
458.35        73.21145
458.79         73.2542
459.24        72.68705
459.68        71.81594
460.13        71.01251
460.57        70.70763
461.01        71.05507
461.46        71.33624
461.90        72.26209
462.34         72.7699
462.79        72.51822
463.23        72.49785
463.68        72.52714
464.12        72.29678
464.56        71.81349
465.01        71.25907
465.45        70.69478
465.89        70.49915
466.34        70.59153
466.78        70.53775
467.22        70.35145
467.67        70.13936
468.11        70.45782
468.55         70.5872
468.99        70.62508
469.44        70.58134
469.88        70.45821
470.32        70.24604
470.77        69.99596
471.21        69.81732
471.65        69.72538
472.10        69.69194
472.54         69.7056
472.98        69.71484
473.42        69.68765
473.87        69.79517
474.31         69.9117
474.75        69.57095
475.20        68.94946
475.64        68.82616
476.08        69.18396
476.52        69.18034
476.97        68.76296
477.41        68.65897
477.85        69.04256
478.29        68.31042
478.74         69.1667
479.18        69.32639
479.62        69.47752
480.06        69.47657
480.50        69.25097
480.95        69.14651
481.39        69.27422
481.83        68.32088
482.27        68.48214
482.72        68.99715
483.16        68.79285
483.60        68.78256
484.04        68.81518
484.48        69.06711
484.93        69.60553
485.37        68.61248
485.81        68.38355
486.25        68.53217
486.69        69.85936
487.14        70.31432
487.58        68.73843
488.02         69.0536
488.46        67.94124
488.90        67.65615
489.34        68.98985
489.79        69.82993
490.23        69.23689
490.67        68.62458
491.11        67.95024
491.55        67.80017
491.99        68.10851
492.43        68.06857
492.88        67.68468
493.32        67.60574
493.76        67.82111
494.20        67.94013
494.64        67.92443
495.08        67.87394
495.52        67.81021
495.96        67.77858
496.41        67.77628
496.85        67.78783
497.29        67.68864
497.73        67.68234
498.17        67.00329
498.61        66.96695
499.05        67.30173
499.49        67.69183
499.93        67.68952
500.37        67.78368
500.82         67.8981
501.26        67.65427
501.70        67.44739
502.14        67.75523
502.58        67.82633
503.02        67.98659
503.46        67.97375
503.90        68.02062
504.34        68.08157
504.78        67.99895
505.22        67.77712
505.66        67.46356
506.10        67.16411
506.54        67.03957
506.98        67.12043
507.42        67.35395
507.86        67.62935
508.30        67.76492
508.74        67.71079
509.18        67.52092
509.62        67.27597
510.06        67.10901
510.50        67.06052
510.94        67.08723
511.38        67.15129
511.82        67.19296
512.26        67.19429
512.70        67.18553
513.14        67.17781
513.58         67.1824
514.02        67.20531
514.46        67.23234
514.90        67.27364
515.34        67.35239
515.78        67.46223
516.22        67.58717
516.66        67.68877
517.10        67.70612
517.54        67.62818
517.98        67.48063
518.42        67.29404
518.86        67.11777
519.30         66.9764
519.74        66.86361
520.18        66.79458
520.62        66.78754
521.06        66.84239
521.50        66.95868
521.93        67.10711
522.37         67.2139
522.81        67.26876
523.25        67.27998
523.69        67.27869
524.13        67.32341
524.57        67.41689
525.01        67.52161
525.45        67.60457
525.89        67.61443
526.32        67.53426
526.76        67.41662
527.20        67.24876
527.64        67.02518
528.08        66.76834
528.52        66.45618
528.96        66.19451
529.40        66.21634
529.83        66.49941
530.27        66.83636
530.71        67.10127
531.15        67.23736
531.59        67.20084
532.03        66.96061
532.46        66.61767
532.90        66.42554
533.34        66.42567
533.78        66.50481
534.22        66.59502
534.66        66.67554
535.09        66.67001
535.53        66.46727
535.97        66.13323
536.41        65.93709
536.85        65.91448
537.28         65.9274
537.72        65.97153
538.16         66.0935
538.60        66.27535
539.04        66.49915
539.47        66.69657
539.91        66.80534
540.35         66.7973
540.79        66.69475
541.22        66.54639
541.66        66.45677
542.10         66.4441
542.54        66.47986
542.97        66.52122
543.41        66.52995
543.85        66.48589
544.29        66.42096
544.72        66.33607
545.16        66.26834
545.60        66.21644
546.04        66.17632
546.47        66.17467
546.91        66.24948
547.35        66.39331
547.79        66.58999
548.22        66.77905
548.66         66.8499
549.10        66.85858
549.53        66.80716
549.97        66.73051
550.41        66.53957
550.84        66.31919
551.28        66.26555
551.72         66.3475
552.15         66.4647
552.59        66.63977
553.03        66.36527
553.46        66.77038
553.90        66.73558
554.34        66.57198
554.77        66.59743
555.21        66.35503
555.65        66.33513
556.08        66.42016
556.52        66.52363
556.96        66.60355
557.39        66.71433
557.83        66.78493
558.27        66.64124
558.70         66.0648
559.14        65.86627
559.57        65.94794
560.01        65.92477
560.45        65.82227
560.88        65.95348
561.32        66.28979
561.75        66.57481
562.19        66.75783
562.63        66.70951
563.06        66.46077
563.50        66.52618
563.93        66.37318
564.37        66.37811
564.80        66.40049
565.24         66.2695
565.68        65.88267
566.11        66.57447
566.55          65.961
566.98        65.93113
567.42        65.88026
567.85        65.99392
568.29        66.26089
568.72        66.55016
569.16        66.89613
569.60        67.02032
570.03         67.1358
570.47        67.28688
570.90         67.5991
571.34        66.98978
571.77        67.32993
572.21        67.55618
572.64        67.54758
573.08        67.40393
573.51        67.02331
573.95          67.112
574.38        67.82777
574.82         67.5405
