SpectraSmart Spectrum 2.9.0.0
--------- Device Information -----------
Spectrum Name :  反射率_0
Saving Time :  2024/04/27 00:35:28
Spectro-Module Model Name : SE2030-DUVN
Spectro-Module Serial Number : OS361AC55029948
Wavelength Start : 200
Wavelength End : 1025
Wavelength Unit : Wavelength(nm)
Spectrum Unit : Reflectance(%)
-----------Spectrum Setting ------------
Integration Time : 20ms
Average : 10
Boxcar : 0
Background removal :  enabled
linearity correction :  enabled
SC :  disabled
Intensity correction :  disabled
DWT denoise :  enabled
savitzky-golay :  disabled
FFT :  disabled
Running average :  disabled
Kalman :  disabled
High pass :  disabled
---------------BEGIN--------------------
Wavelength(nm)             Reflectance(%)
200.29               0
200.75          42.463
201.21        45.24333
201.67        47.99052
202.13        50.13919
202.58         51.7946
203.04        53.80959
203.50        56.59047
203.96        60.08771
204.42        63.93623
204.88        67.58171
205.34        70.37019
205.80        71.98843
206.26        72.15888
206.72        70.60504
207.18        68.34966
207.64        66.06973
208.10        63.63181
208.55        61.34933
209.01        57.25745
209.47        50.16282
209.93         43.3323
210.39        39.07804
210.85         38.0285
211.31        40.33693
211.77         46.9299
212.23        62.92044
212.69        103.6418
213.14         173.181
213.60        172.1039
214.06        123.9694
214.52        91.14747
214.98        77.08296
215.44        71.85965
215.90        69.17633
216.36        67.92389
216.81         67.1955
217.27        66.72386
217.73        68.21345
218.19          69.534
218.65        63.79041
219.11        53.06918
219.57        43.40881
220.02        39.04694
220.48        42.08511
220.94        52.24924
221.40        71.07943
221.86         98.7127
222.32        118.9617
222.77        115.7086
223.23        98.87748
223.69        80.00332
224.15        65.87715
224.61         56.3043
225.06        48.88879
225.52        43.90997
225.98        41.48885
226.44        41.12619
226.90        42.65825
227.36        44.80139
227.81        45.31666
228.27        43.98655
228.73        41.46499
229.19        39.38536
229.65         39.7284
230.10        42.46778
230.56        46.77893
231.02        50.94468
231.48        52.24671
231.93        50.26997
232.39        46.52552
232.85        42.61874
233.31        40.57603
233.77        40.66833
234.22        42.19215
234.68        44.34065
235.14        46.00024
235.60         46.7775
236.05        47.06326
236.51        47.01361
236.97        46.91913
237.43        46.94354
237.88        46.94398
238.34        46.95267
238.80         47.3404
239.26        48.32426
239.71        50.40084
240.17        53.41817
240.63        56.94081
241.08        60.63328
241.54        63.84032
242.00        67.66577
242.46        75.04087
242.91        88.75275
243.37        111.1534
243.83        142.4992
244.28        167.8624
244.74        166.0142
245.20        137.6511
245.66        104.3195
246.11        84.71007
246.57        79.23878
247.03         82.3884
247.48        88.55031
247.94        88.44852
248.40        82.11464
248.85        74.61369
249.31        69.16112
249.77        66.92003
250.22        67.35705
250.68        69.56359
251.14        72.92773
251.59        75.28062
252.05        75.38918
252.51        74.56104
252.96         72.8504
253.42        70.78103
253.88        68.56767
254.33        65.82447
254.79        64.48717
255.25        65.82515
255.70        69.36793
256.16        74.54015
256.62        78.56597
257.07        77.47536
257.53         72.8074
257.99        67.13432
258.44        62.54081
258.90        61.03735
259.35        61.53249
259.81        63.26577
260.27        64.85066
260.72        64.68876
261.18        63.03342
261.63        60.41399
262.09        58.04722
262.55        56.66943
263.00        56.14732
263.46        56.23293
263.91        56.15822
264.37        55.28697
264.83        53.59161
265.28        51.40685
265.74         49.4573
266.19        48.32756
266.65        48.11983
267.11        48.46151
267.56        48.90868
268.02         48.7763
268.47        47.88783
268.93        46.52331
269.38        44.91682
269.84        43.47417
270.30        42.31902
270.75        41.32476
271.21        40.51165
271.66        39.85712
272.12        39.32984
272.57        38.91794
273.03        38.53096
273.48        37.99223
273.94        37.31299
274.39        36.50743
274.85        35.69456
275.31        34.91574
275.76        34.17487
276.22         33.4897
276.67        32.86251
277.13        32.38655
277.58        32.01029
278.04        31.73304
278.49        31.41718
278.95        30.97134
279.40        30.34142
279.86         29.6479
280.31         28.9274
280.77        28.33352
281.22         27.8609
281.68        27.51419
282.13        27.25241
282.59        27.10153
283.04        27.01727
283.50        27.01225
283.95        27.02591
284.41        26.97271
284.86        26.83299
285.32        26.65228
285.77        26.47086
286.22        26.41119
286.68        26.48968
287.13        26.63002
287.59        26.79382
288.04        26.87651
288.50        26.87328
288.95        26.79372
289.41        26.67223
289.86        26.49189
290.32        26.30632
290.77        26.11982
291.22        26.00098
291.68        26.03451
292.13        26.23668
292.59        26.61572
293.04        27.14793
293.50         27.8059
293.95        28.56338
294.40        29.42516
294.86        30.38923
295.31        31.44381
295.77        32.58667
296.22        33.79716
296.68        35.06218
297.13        36.35328
297.58        37.67483
298.04        39.03546
298.49        40.45629
298.95        41.98825
299.40        43.62109
299.85        45.33736
300.31        47.09132
300.76        48.79391
301.21        50.43406
301.67        52.05079
302.12        53.65393
302.58        55.34425
303.03         57.0918
303.48        58.88366
303.94        60.70314
304.39         62.4659
304.84        64.18145
305.30        65.88795
305.75        67.55666
306.20        69.22598
306.66        70.91956
307.11        72.59739
307.57        74.27261
308.02        75.86397
308.47        77.38523
308.93        78.85658
309.38        80.30663
309.83        81.89274
310.29        83.63031
310.74         85.4511
311.19        87.19823
311.65        88.58962
312.10        89.53849
312.55        90.12789
313.00        90.54852
313.46        91.10609
313.91        91.86639
314.36        92.78069
314.82        93.72722
315.27        94.51829
315.72        95.08131
316.18        95.50379
316.63        95.85604
317.08        96.29198
317.53        96.85075
317.99        97.46447
318.44        98.06928
318.89        98.53877
319.35        98.83366
319.80        99.00074
320.25        99.09983
320.70        99.22607
321.16        99.41313
321.61        99.68098
322.06        99.98228
322.51        100.2475
322.97         100.445
323.42        100.5917
323.87        100.7903
324.32        101.2281
324.78        101.8911
325.23        102.7902
325.68        103.6194
326.13        103.8853
326.59        103.4902
327.04        102.6174
327.49        101.6794
327.94        101.3561
328.39        101.8127
328.85        102.8305
329.30        104.1461
329.75         105.027
330.20        105.2288
330.66         104.925
331.11         104.461
331.56        104.3234
332.01        104.6647
332.46        105.3082
332.92        105.9953
333.37         106.458
333.82        106.5441
334.27        106.4127
334.72        106.2207
335.17         106.194
335.63        106.4145
336.08        106.8682
336.53         107.524
336.98        108.3794
337.43        109.3919
337.88        110.5209
338.34        111.6672
338.79        112.7785
339.24        113.7417
339.69        114.5544
340.14        115.1044
340.59        115.2501
341.05        115.0385
341.50        114.5337
341.95        114.0336
342.40        113.9849
342.85        114.4883
343.30        115.4297
343.75        116.5494
344.20        117.3935
344.66        117.8298
345.11        117.9849
345.56        118.0111
346.01        118.1608
346.46        118.5186
346.91        118.9962
347.36        119.5212
347.81        120.0085
348.26        120.4081
348.72        120.7226
349.17        120.9844
349.62        121.2754
350.07        121.5976
350.52        121.9488
350.97        122.1301
351.42        121.8335
351.87        121.0571
352.32        119.9391
352.77        118.8956
353.22        118.5248
353.67        118.9266
354.13        119.9141
354.58         121.066
355.03        121.6287
355.48        121.3874
355.93         120.545
356.38        119.5112
356.83        118.9138
357.28        118.8859
357.73        119.2117
358.18        119.5296
358.63        119.2726
359.08        118.3168
359.53        116.8856
359.98        115.3337
360.43        114.1579
360.88        113.4715
361.33        113.1195
361.78        112.8471
362.23        112.2573
362.68        111.2691
363.13        110.0419
363.58        108.8019
364.03        107.8793
364.48        107.3404
364.93        107.0436
365.38        106.8261
365.83        106.4437
366.28        105.8161
366.73        105.0281
367.18        104.1299
367.63          103.19
368.08        102.2522
368.53        101.3048
368.98        100.3888
369.43        99.57195
369.88        98.87022
370.33        98.27734
370.78        97.76916
371.23        97.29559
371.68        96.83382
372.13        96.38499
372.58        95.93394
373.03        95.46209
373.48        94.95332
373.93        94.38824
374.38        93.77129
374.83        93.12567
375.28        92.46108
375.72        91.76559
376.17        91.07599
376.62        90.33022
377.07        89.54788
377.52        88.78331
377.97        88.09787
378.42        87.59886
378.87         87.3047
379.32        87.13483
379.77        87.08967
380.22        87.17269
380.67        87.33414
381.11        87.58758
381.56        87.65878
382.01        87.19896
382.46        86.20119
382.91        84.85205
383.36        83.53337
383.81        82.76639
384.26         82.6301
384.71        82.94588
385.15        83.48176
385.60        83.81744
386.05        83.80408
386.50         83.5542
386.95        83.10348
387.40        82.51933
387.85        81.86909
388.29        81.09698
388.74        80.40115
389.19        79.85096
389.64        79.46066
390.09        79.21117
390.54        79.04409
390.98        78.83231
391.43         78.5789
391.88         78.2997
392.33        78.03447
392.78        77.79388
393.23        77.57366
393.67         77.4541
394.12        77.43954
394.57        77.08458
395.02        76.52084
395.47        76.45285
395.91        76.80398
396.36        76.78593
396.81        76.37477
397.26         76.0143
397.71        75.75288
398.15        75.45408
398.60        75.21535
399.05        74.97829
399.50        74.76334
399.95         74.6722
400.39        74.68932
400.84        74.58609
401.29        74.33094
401.74        74.10841
402.18        73.87952
402.63        73.29963
403.08        72.59133
403.53        72.34216
403.97        72.59796
404.42        73.10075
404.87        73.59727
405.32        73.72771
405.76        73.39491
406.21        72.81821
406.66         72.1796
407.11        71.65836
407.55        71.44863
408.00        71.64318
408.45        72.10727
408.90        72.58978
409.34        72.78772
409.79        72.18114
410.24        71.09377
410.68        70.57842
411.13        70.74512
411.58        71.03548
412.03        71.25842
412.47         71.3345
412.92          71.167
413.37        70.82639
413.81        70.45538
414.26        70.32393
414.71        70.45604
415.15        70.79893
415.60        71.20031
416.05        71.47534
416.49        71.55932
416.94        71.49655
417.39        71.37522
417.83        71.31656
418.28        71.35902
418.73        71.45726
419.17        71.56257
419.62        71.60538
420.07        71.56299
420.51        71.44724
420.96        71.32669
421.41        71.23912
421.85        71.17432
422.30         71.1993
422.74        71.20956
423.19        71.13334
423.64        70.94673
424.08        70.75302
424.53        70.61713
424.98        70.62291
425.42        70.79799
425.87        71.18537
426.31        71.63692
426.76        71.65342
427.21        71.30938
427.65        71.19559
428.10        71.32965
428.54        71.42716
428.99        71.52991
429.44        71.46836
429.88        71.38902
430.33        72.03489
430.77         72.9977
431.22        73.24409
431.66        72.70027
432.11        71.77192
432.56        70.85841
433.00        70.73425
433.45        71.59106
433.89        72.60822
434.34        72.88071
434.78         74.1431
435.23        73.01535
435.67        70.41768
436.12        71.08989
436.57        71.37565
437.01        72.51058
437.46        72.87552
437.90        72.40713
438.35         72.0025
438.79        71.82697
439.24        71.79612
439.68        71.90691
440.13        72.35869
440.57          73.028
441.02        73.11009
441.46        72.72329
441.91        73.28784
442.35        74.37601
442.80        74.26778
443.24        73.18031
443.69         72.9827
444.13        73.67688
444.58        74.09308
445.02        74.11412
445.47        74.12148
445.91        74.17449
446.36        74.33669
446.80        74.58714
447.24        74.98397
447.69        75.10264
448.13         75.2316
448.58        75.25912
449.02         75.1642
449.47        75.03043
449.91        74.92876
450.36        74.90451
450.80        75.02342
451.25        75.22808
451.69        75.11124
452.13        74.78613
452.58         74.8485
453.02        75.24274
453.47        75.39086
453.91        75.25227
454.36        75.16355
454.80        75.11035
455.24        74.88242
455.69         74.4992
456.13        74.11115
456.58        73.83369
457.02         73.4245
457.46        73.07987
457.91        73.43667
458.35        74.17429
458.79        74.27316
459.24        73.74323
459.68        72.93261
460.13        72.12139
460.57        71.87738
461.01        72.41428
461.46        71.92786
461.90        72.65647
462.34        73.59515
462.79        73.12881
463.23         73.2151
463.68         73.3429
464.12        73.16554
464.56        72.68346
465.01          71.973
465.45        71.23406
465.89        70.91761
466.34        70.95218
466.78        71.21061
467.22        71.68353
467.67        70.79908
468.11         71.2054
468.55        71.10711
468.99        71.23997
469.44        71.16682
469.88        70.90746
470.32        70.67747
470.77        70.49779
471.21        70.35989
471.65        70.26053
472.10        70.21239
472.54        70.20767
472.98        70.18006
473.42        70.09784
473.87        70.17815
474.31        70.30034
474.75        69.88663
475.20        69.15701
475.64        69.19173
476.08        69.88773
476.52        69.96034
476.97        69.30052
477.41        69.40813
477.85        69.12334
478.29        68.85348
478.74        69.23829
479.18        69.68533
479.62        69.59637
480.06        69.67151
480.50        69.63585
480.95        69.61163
481.39        69.64721
481.83        69.06104
482.27        69.29738
482.72        69.25562
483.16        69.40305
483.60        69.20353
484.04        69.41141
484.48        69.56008
484.93        69.77637
485.37         69.5115
485.81        69.03804
486.25        69.08479
486.69        70.70345
487.14        71.03558
487.58        68.97554
488.02        69.49052
488.46        68.46085
488.90         68.3427
489.34        69.93987
489.79        70.72659
490.23        69.69057
490.67        68.98426
491.11        68.48634
491.55        68.34407
491.99        68.48309
492.43        68.38034
492.88        68.04693
493.32        67.99522
493.76        68.21375
494.20        68.34129
494.64        68.33601
495.08        68.33949
495.52        68.34345
495.96        68.25234
496.41         68.1091
496.85         68.1049
497.29        68.11586
497.73        68.23059
498.17        67.61466
498.61        67.52894
499.05        67.73424
499.49        67.95403
499.93        67.90383
500.37        68.14654
500.82        68.52625
501.26        68.33725
501.70        68.08514
502.14        67.92007
502.58        68.02168
503.02        68.05477
503.46        68.02948
503.90        68.17759
504.34        68.40331
504.78        68.42215
505.22        68.21375
505.66        67.88755
506.10        67.58139
506.54        67.46984
506.98        67.50733
507.42        67.62077
507.86        67.73075
508.30        67.24957
508.74        67.68526
509.18        67.64874
509.62        67.59183
510.06        67.54588
510.50        67.52563
510.94        67.48438
511.38        67.43614
511.82        67.45126
512.26        67.53281
512.70        67.66982
513.14        67.80573
513.58        67.84387
514.02        67.76651
514.46        67.60263
514.90        67.42449
515.34        67.35001
515.78         67.4035
516.22         67.5434
516.66        67.70111
517.10        67.76536
517.54        67.70997
517.98        67.58074
518.42        67.41869
518.86         67.2879
519.30        67.21346
519.74        67.16985
520.18        67.17048
520.62        67.23685
521.06        67.36374
521.50        67.55078
521.93        67.73935
522.37        67.80937
522.81        67.74639
523.25        67.57446
523.69        67.38181
524.13        67.31291
524.57        67.39058
525.01        67.56121
525.45        67.73283
525.89        67.75582
526.32        67.59486
526.76        67.33222
527.20        67.02853
527.64        66.80111
528.08        66.69106
528.52        66.60159
528.96        66.55535
529.40        66.72495
529.83        67.02746
530.27        67.15146
530.71        67.07684
531.15        67.04723
531.59        67.06525
532.03        66.96416
532.46          66.772
532.90         66.6668
533.34        66.66058
533.78        66.67306
534.22        66.67297
534.66        66.69176
535.09        66.66962
535.53        66.47418
535.97        66.16412
536.41        66.00114
536.85        66.01382
537.28        66.06749
537.72         66.1452
538.16        66.27121
538.60        66.42271
539.04        66.58587
539.47        66.70814
539.91        66.75256
540.35        66.70016
540.79        66.57284
541.22        66.40896
541.66        66.29433
542.10        66.24641
542.54        66.24463
542.97         66.2694
543.41        66.31722
543.85        66.36926
544.29        66.43887
544.72        66.49093
545.16        66.51102
545.60        66.48313
546.04        66.41458
546.47        66.35531
546.91         66.3824
547.35        66.50314
547.79        66.69661
548.22        66.88461
548.66        66.92857
549.10        66.88132
549.53        66.75392
549.97        66.61385
550.41        66.42738
550.84         66.2949
551.28        66.36192
551.72         66.5332
552.15        66.71088
552.59        66.94797
553.03        66.30695
553.46         66.8007
553.90        66.68776
554.34        66.55747
554.77        66.43534
555.21        66.41956
555.65         66.3399
556.08        66.73159
556.52        66.81586
556.96         66.7431
557.39        66.82352
557.83        67.00647
558.27        66.80153
558.70        66.28625
559.14        66.07594
559.57        66.16023
560.01        66.12666
560.45        66.01199
560.88        66.13607
561.32        66.46558
561.75        66.75861
562.19        66.94081
562.63        66.80221
563.06        66.44756
563.50        66.40852
563.93         66.6107
564.37        66.64902
564.80        66.55208
565.24        66.45975
565.68        66.22245
566.11         66.9379
566.55        66.20818
566.98         65.9113
567.42        65.69376
567.85        65.82998
568.29        66.32157
568.72        66.71393
569.16        67.01143
569.60        67.21268
570.03        67.35823
570.47        67.49817
570.90        67.71407
571.34        67.08978
571.77        67.35556
572.21        67.67239
572.64        67.39032
573.08        67.63754
573.51        67.14299
573.95        67.26193
574.38        67.84811
574.82        67.56542
