SpectraSmart Spectrum 2.9.0.0
--------- Device Information -----------
Spectrum Name :  反射率_0
Saving Time :  2024/04/27 00:37:08
Spectro-Module Model Name : SE2030-DUVN
Spectro-Module Serial Number : OS361AC55029948
Wavelength Start : 200
Wavelength End : 1025
Wavelength Unit : Wavelength(nm)
Spectrum Unit : Reflectance(%)
-----------Spectrum Setting ------------
Integration Time : 20ms
Average : 10
Boxcar : 0
Background removal :  enabled
linearity correction :  enabled
SC :  disabled
Intensity correction :  disabled
DWT denoise :  enabled
savitzky-golay :  disabled
FFT :  disabled
Running average :  disabled
Kalman :  disabled
High pass :  disabled
---------------BEGIN--------------------
Wavelength(nm)             Reflectance(%)
200.29               0
200.75        40.18283
201.21        40.71429
201.67        41.38859
202.13        41.58948
202.58         41.1293
203.04        40.60313
203.50        40.04679
203.96        39.36714
204.42        38.68139
204.88        37.79461
205.34        37.18911
205.80        37.78516
206.26        39.36673
206.72        41.26822
207.18        42.46706
207.64        42.00006
208.10        39.69851
208.55        35.47744
209.01        28.97181
209.47        24.06822
209.93        24.08593
210.39        27.14866
210.85        30.45845
211.31        32.86532
211.77        35.02365
212.23        38.32486
212.69        47.32162
213.14        72.37411
213.60        87.91841
214.06        83.01286
214.52        74.36887
214.98        67.40507
215.44        60.80553
215.90         52.7479
216.36        44.73343
216.81        39.42586
217.27        37.87805
217.73        40.42987
218.19        45.23736
218.65        44.27157
219.11        36.64175
219.57        28.49115
220.02        24.47455
220.48        26.87939
220.94        35.61425
221.40         51.8068
221.86        75.39435
222.32        92.23531
222.77        88.78468
223.23        74.04415
223.69        58.23641
224.15        47.31961
224.61        40.83316
225.06         36.3598
225.52        33.83553
225.98        33.21529
226.44        34.06733
226.90        36.35657
227.36        38.86584
227.81        39.42374
228.27        37.83525
228.73        34.80342
229.19        32.00501
229.65        31.39854
230.10        33.04144
230.56        36.25898
231.02        39.50874
231.48        40.34904
231.93        38.43963
232.39        35.06677
232.85        31.86945
233.31        30.94491
233.77        32.47845
234.22        35.71632
234.68        39.41785
235.14         41.7574
235.60        42.18047
236.05        41.20276
236.51        39.52841
236.97        38.63171
237.43        39.16542
237.88        40.74184
238.34          42.804
238.80        44.71175
239.26        46.29158
239.71        48.10006
240.17        50.21794
240.63         52.9795
241.08        56.58254
241.54        60.48792
242.00        64.81485
242.46        70.41572
242.91        78.66685
243.37         90.1956
243.83        106.3304
244.28        123.4553
244.74        131.8127
245.20        128.1691
245.66        116.9972
246.11        103.5845
246.57         89.7347
247.03        74.54494
247.48        59.58255
247.94         49.9142
248.40        47.05695
248.85        48.03763
249.31        50.17257
249.77        51.07917
250.22        50.36139
250.68         48.5238
251.14        45.91037
251.59        44.18005
252.05         44.9268
252.51        47.65666
252.96        50.71294
253.42        52.99135
253.88        54.44509
254.33        55.03777
254.79        56.67503
255.25        60.87603
255.70        67.29971
256.16        75.29793
256.62        81.63087
257.07        81.46833
257.53        76.53011
257.99        70.08971
258.44        64.77602
258.90        62.97832
259.35        63.54473
259.81        65.54274
260.27        67.49646
260.72        67.68568
261.18        66.31451
261.63        63.92833
262.09        61.71747
262.55        60.36356
263.00         59.7435
263.46        59.63832
263.91         59.3381
264.37        58.31414
264.83        56.53904
265.28        54.31142
265.74        52.29989
266.19        50.98925
266.65        50.48895
267.11         50.4838
267.56        50.59219
268.02        50.23306
268.47        49.26014
268.93        47.89988
269.38         46.3872
269.84        45.13547
270.30        44.22665
270.75        43.50621
271.21        42.87439
271.66        42.12318
272.12        41.21099
272.57        40.21443
273.03        39.18559
273.48        38.18344
273.94        37.29821
274.39        36.46902
274.85        35.79243
275.31        35.27041
275.76        34.85593
276.22        34.56198
276.67        34.26981
277.13        33.90164
277.58        33.38766
278.04        32.77831
278.49        32.08162
278.95        31.43466
279.40        30.82137
279.86        30.28777
280.31        29.74463
280.77        29.16448
281.22        28.52147
281.68        27.90875
282.13        27.38272
282.59        27.09582
283.04        27.02995
283.50        27.14975
283.95        27.35092
284.41        27.47936
284.86        27.48374
285.32        27.42359
285.77        27.34411
286.22        27.37916
286.68         27.5465
287.13        27.75571
287.59        27.96073
288.04        28.04911
288.50        28.01945
288.95        27.89349
289.41        27.71892
289.86        27.49113
290.32         27.2757
290.77        27.08177
291.22        26.98532
291.68        27.07989
292.13        27.38072
292.59        27.88897
293.04        28.57901
293.50        29.41951
293.95        30.37623
294.40         31.4527
294.86        32.62193
295.31        33.83464
295.77        35.08719
296.22        36.37087
296.68        37.71814
297.13        39.17025
297.58        40.74706
298.04        42.43733
298.49        44.21431
298.95        46.05383
299.40        47.92072
299.85        49.81128
300.31        51.71766
300.76        53.60841
301.21          55.483
301.67        57.36068
302.12        59.20019
302.58        61.03398
303.03        62.82381
303.48        64.59528
303.94        66.39788
304.39        68.23385
304.84        70.13432
305.30        72.10797
305.75        74.07496
306.20        76.00284
306.66        77.89216
307.11        79.71187
307.57        81.49718
308.02         83.1932
308.47        84.81744
308.93        86.37211
309.38         87.8618
309.83        89.41937
310.29        91.06214
310.74        92.74646
311.19        94.33369
311.65        95.56767
312.10         96.3791
312.55        96.84782
313.00        97.19444
313.46        97.76535
313.91        98.62221
314.36        99.70387
314.82         100.821
315.27        101.6769
315.72        102.1722
316.18        102.4233
316.63        102.5748
317.08        102.9024
317.53        103.4747
317.99        104.1915
318.44        104.9222
318.89        105.4286
319.35        105.6455
319.80        105.6577
320.25        105.5965
320.70        105.6687
321.16        105.9315
321.61        106.3655
322.06        106.8523
322.51        107.2083
322.97        107.3693
323.42        107.3897
323.87        107.4276
324.32         107.759
324.78        108.3985
325.23        109.3415
325.68        110.2474
326.13        110.5669
326.59        110.1818
327.04        109.2868
327.49        108.3317
327.94         108.057
328.39        108.6338
328.85        109.8177
329.30        111.2782
329.75         112.148
330.20        112.1601
330.66        111.5458
331.11        110.7566
331.56          110.44
332.01        110.7966
332.46        111.5974
332.92        112.5462
333.37        113.3115
333.82        113.6883
334.27         113.845
334.72        113.8672
335.17        113.8677
335.63        113.9133
336.08        114.0203
336.53        114.2695
336.98        114.8579
337.43        115.8023
337.88        117.0188
338.34         118.329
338.79        119.5399
339.24        120.4837
339.69        121.1984
340.14        121.6095
340.59        121.6319
341.05        121.3405
341.50        120.7889
341.95        120.2526
342.40        120.1508
342.85        120.5807
343.30        121.4301
343.75        122.5012
344.20        123.4378
344.66        124.1078
345.11        124.5929
345.56        124.9089
346.01        125.0982
346.46        125.2118
346.91        125.2412
347.36          125.26
347.81        125.4102
348.26        125.7052
348.72        126.0827
349.17        126.4983
349.62        126.9095
350.07        127.2727
350.52        127.6218
350.97        127.7723
351.42         127.436
351.87        126.6173
352.32        125.4334
352.77         124.295
353.22        123.8023
353.67        124.0527
354.13        124.8601
354.58        125.8131
355.03        126.1701
355.48        125.7294
355.93        124.7078
356.38        123.5048
356.83         122.725
357.28        122.5014
357.73        122.6252
358.18        122.7796
358.63        122.4717
359.08        121.5821
359.53        120.2969
359.98         118.895
360.43        117.7605
360.88        116.9813
361.33        116.4375
361.78        115.9223
362.23        115.1214
362.68        113.9822
363.13        112.6379
363.58        111.3058
364.03        110.3017
364.48         109.681
364.93        109.3122
365.38        109.0143
365.83        108.5075
366.28        107.7132
366.73        106.7352
367.18        105.6555
367.63        104.5949
368.08        103.6077
368.53        102.6576
368.98        101.7792
369.43        101.0285
369.88        100.4072
370.33        99.91293
370.78        99.46957
371.23        98.94445
371.68        98.30122
372.13        97.55743
372.58        96.79391
373.03        96.14796
373.48         95.6375
373.93        95.20687
374.38         94.7449
374.83        94.08482
375.28        93.19986
375.72         92.1431
376.17        91.08399
376.62        90.15775
377.07        89.42059
377.52        88.85669
377.97        88.40746
378.42        87.98891
378.87        87.57348
379.32        87.15118
379.77        86.81841
380.22        86.71442
380.67        86.82468
381.11        87.11848
381.56        87.27545
382.01        86.86932
382.46        85.86562
382.91        84.47803
383.36        83.11417
383.81        82.32805
384.26        82.20384
384.71         82.5454
385.15        83.09942
385.60        83.41509
386.05        83.33964
386.50        83.00376
386.95        82.46343
387.40        81.81627
387.85        81.13509
388.29        80.34658
388.74        79.64579
389.19         79.0996
389.64        78.71538
390.09        78.47844
390.54        78.29779
390.98         77.9948
391.43        77.57504
391.88        77.08133
392.33        76.62246
392.78        76.30027
393.23        76.12282
393.67        76.15027
394.12         76.3176
394.57         76.0582
395.02        75.48945
395.47        75.38342
395.91        75.70505
396.36        75.68758
396.81        75.32438
397.26        75.07166
397.71         74.8973
398.15        74.56807
398.60        74.18804
399.05        73.65683
399.50        73.12834
399.95        73.11536
400.39        73.53193
400.84        73.54697
401.29        73.12031
401.74        72.98938
402.18        73.06386
402.63        72.48107
403.08        71.47288
403.53        70.99926
403.97        71.14126
404.42        71.48179
404.87        71.79919
405.32         71.8657
405.76        71.59873
406.21        71.12992
406.66        70.62704
407.11         70.3595
407.55        70.43856
408.00        70.69989
408.45        71.02859
408.90        71.41162
409.34        71.61202
409.79        71.10255
410.24        70.14986
410.68        69.65183
411.13        69.70484
411.58        69.85469
412.03        69.94555
412.47         69.9072
412.92        69.66443
413.37        69.29133
413.81         68.9098
414.26        68.75245
414.71        68.83408
415.15        69.11003
415.60        69.44546
416.05        69.68471
416.49        69.77042
416.94        69.73616
417.39        69.64742
417.83        69.59077
418.28        69.59943
418.73         69.6433
419.17        69.69373
419.62        69.71307
420.07        69.68026
420.51        69.58909
420.96        69.50317
421.41        69.42759
421.85        69.34497
422.30        69.41029
422.74        69.47936
423.19        69.25626
423.64        68.78604
424.08        68.54579
424.53         68.6067
424.98        68.69032
425.42        68.79339
425.87        69.26914
426.31        69.90142
426.76        69.74332
427.21        68.96098
427.65        68.75282
428.10         69.1091
428.54        69.23246
428.99        69.15819
429.44        68.98406
429.88        68.91251
430.33        69.67366
430.77        70.82206
431.22        71.26458
431.66         70.8686
432.11        69.91803
432.56        68.91106
433.00        68.77097
433.45        69.59051
433.89        70.78609
434.34        71.62992
434.78         71.6945
435.23        71.01166
435.67        69.36203
436.12        69.39568
436.57        69.56794
437.01        70.30229
437.46        70.53046
437.90        70.21133
438.35        69.51761
438.79        69.60673
439.24        69.57963
439.68        69.70647
440.13        70.21729
440.57        70.97784
441.02        70.96016
441.46        70.33909
441.91        70.98787
442.35        72.37726
442.80        72.16212
443.24        70.65211
443.69        70.43659
444.13        71.46805
444.58        71.91299
445.02        71.67903
445.47        71.61677
445.91        71.78308
446.36        72.00827
446.80        72.27325
447.24        72.53362
447.69        72.74682
448.13        72.89056
448.58        72.96652
449.02         72.9497
449.47        72.86953
449.91        72.74992
450.36        72.63419
450.80        72.50107
451.25        72.41453
451.69        72.40956
452.13        72.50522
452.58        72.68105
453.02        72.87259
453.47        72.98135
453.91        72.96548
454.36        72.85423
454.80        72.67504
455.24        72.40865
455.69        72.07323
456.13        71.85606
456.58         71.7978
457.02        71.29713
457.46        70.59258
457.91        71.10567
458.35        71.83763
458.79        71.97934
459.24        71.32829
459.68        70.48772
460.13        69.75041
460.57        69.47989
461.01        69.85207
461.46        69.69617
461.90        70.28162
462.34        71.16927
462.79        70.62306
463.23        70.92194
463.68        71.26137
464.12        71.09921
464.56        70.41024
465.01         69.4635
465.45        68.55389
465.89        68.42595
466.34        68.89762
466.78        69.12972
467.22        69.10885
467.67        68.50578
468.11        68.85829
468.55         68.8967
468.99        68.93156
469.44        68.82273
469.88        68.56496
470.32        68.29287
470.77        68.07302
471.21         67.9647
471.65        67.97549
472.10        68.10474
472.54        68.26537
472.98        68.26877
473.42        68.06989
473.87        67.86656
474.31        67.68589
474.75        67.14467
475.20        66.93559
475.64        66.83649
476.08        66.98823
476.52        67.00496
476.97        66.83443
477.41        66.84769
477.85        66.93197
478.29         66.7887
478.74        66.96188
479.18        67.40421
479.62        67.03549
480.06        67.03427
480.50        67.01514
480.95        67.00204
481.39         66.9791
481.83        66.83391
482.27        66.52885
482.72        66.98686
483.16        66.74814
483.60        66.69524
484.04        66.80618
484.48        67.14761
484.93        67.75545
485.37        66.79043
485.81         66.7372
486.25        66.31978
486.69        67.77258
487.14        68.12699
487.58        66.42782
488.02        67.10722
488.46        65.25506
488.90           66.15
489.34        67.28355
489.79        68.62294
490.23        67.30727
490.67         66.5248
491.11        65.94753
491.55        65.84219
491.99        66.13642
492.43        66.08498
492.88        65.70007
493.32        65.63103
493.76        65.88056
494.20        66.03291
494.64        66.03931
495.08        66.06206
495.52        66.10114
495.96         66.0091
496.41        65.84439
496.85        65.96565
497.29        66.16226
497.73        66.16861
498.17        65.24389
498.61        64.98933
499.05        65.21471
499.49        65.57601
499.93        65.69998
500.37        65.79484
500.82        65.76373
501.26         65.6047
501.70        65.41007
502.14        65.42525
502.58        65.64034
503.02        65.76174
503.46        65.77637
503.90        65.90234
504.34        66.07696
504.78        66.07628
505.22        65.88274
505.66        65.56008
506.10        65.22211
506.54        65.07648
506.98        65.14632
507.42        65.29698
507.86        65.45193
508.30        65.55374
508.74        65.56461
509.18        65.48432
509.62        65.34469
510.06        65.21809
510.50         65.1293
510.94        65.05373
511.38        65.00645
511.82        65.01443
512.26        65.07854
512.70        65.19817
513.14        65.33619
513.58         65.4267
514.02        65.45244
514.46        65.42354
514.90        65.37716
515.34        65.37896
515.78        65.43961
516.22        65.53281
516.66         65.6145
517.10        65.61508
517.54        65.52258
517.98        65.37112
518.42        65.19753
518.86        65.05795
519.30        64.97427
519.74        64.92961
520.18        64.92996
520.62        64.98156
521.06        65.07947
521.50        65.22753
521.93        65.38664
522.37        65.47066
522.81        65.46898
523.25        65.39042
523.69         65.2997
524.13        65.30386
524.57         65.4142
525.01        65.59494
525.45        65.75948
525.89        65.75034
526.32        65.53182
526.76        65.25175
527.20        64.86959
527.64        64.60944
528.08        64.47721
528.52          64.437
528.96        64.47191
529.40        64.55653
529.83        64.66697
530.27        64.81306
530.71        64.94802
531.15        65.00275
531.59        64.96364
532.03        64.84105
532.46        64.67297
532.90        64.57108
533.34        64.55058
533.78        64.55164
534.22        64.54272
534.66        64.55231
535.09        64.52296
535.53        64.32429
535.97        64.01986
536.41        63.87434
536.85        63.91623
537.28        64.01286
537.72        64.13245
538.16        64.27336
538.60        64.41087
539.04        64.54046
539.47        64.63383
539.91         64.6918
540.35        64.69917
540.79        64.65735
541.22        64.58255
541.66        64.52464
542.10        64.49033
542.54        64.47574
542.97        64.45553
543.41         64.4175
543.85        64.35049
544.29        64.27061
544.72        64.19207
545.16        64.16891
545.60        64.19671
546.04        64.28079
546.47        64.39734
546.91        64.47609
547.35        64.51893
547.79        64.58148
548.22        64.65007
548.66        64.70599
549.10        64.77029
549.53        64.66807
549.97        64.47249
550.41        64.23964
550.84        64.03721
551.28         64.1075
551.72        64.41463
552.15        64.13577
552.59        64.39089
553.03        64.08683
553.46        64.26584
553.90        64.22627
554.34        64.17857
554.77        64.14972
555.21        64.16286
555.65        64.17107
556.08        64.29417
556.52        64.36709
556.96        64.39475
557.39        64.47926
557.83        64.56744
558.27        64.33889
558.70        63.83939
559.14        63.66146
559.57        63.78566
560.01        63.79631
560.45        63.71248
560.88        63.89742
561.32        64.28172
561.75        64.45715
562.19        64.42132
562.63        64.27305
563.06        64.08713
563.50        64.18983
563.93        64.23392
564.37        64.33208
564.80        64.38142
565.24        64.22477
565.68        63.78873
566.11        64.41101
566.55        63.79357
566.98        63.74883
567.42        63.68864
567.85        63.77856
568.29        63.99895
568.72        64.31492
569.16        64.76339
569.60        64.91737
570.03        64.65966
570.47        65.25607
570.90        65.31841
571.34        64.47878
571.77        64.96815
572.21        65.40276
572.64        64.93953
573.08        65.39297
573.51        64.45061
573.95        64.50038
574.38        65.07587
574.82        65.24271
