SpectraSmart Spectrum 2.9.0.0
--------- Device Information -----------
Spectrum Name :  反射率_0
Saving Time :  2024/04/27 00:35:15
Spectro-Module Model Name : SE2030-DUVN
Spectro-Module Serial Number : OS361AC55029948
Wavelength Start : 200
Wavelength End : 1025
Wavelength Unit : Wavelength(nm)
Spectrum Unit : Reflectance(%)
-----------Spectrum Setting ------------
Integration Time : 20ms
Average : 10
Boxcar : 0
Background removal :  enabled
linearity correction :  enabled
SC :  disabled
Intensity correction :  disabled
DWT denoise :  enabled
savitzky-golay :  disabled
FFT :  disabled
Running average :  disabled
Kalman :  disabled
High pass :  disabled
---------------BEGIN--------------------
Wavelength(nm)             Reflectance(%)
200.29               0
200.75        10.59554
201.21        17.09352
201.67        23.48711
202.13        27.34099
202.58        28.58169
203.04         28.4745
203.50        27.49807
203.96        26.77135
204.42        27.13114
204.88        27.88912
205.34        29.00912
205.80        30.67454
206.26         32.3334
206.72        33.57796
207.18        33.95901
207.64         32.8571
208.10        30.14414
208.55        25.89496
209.01        19.09855
209.47         12.1132
209.93        8.948326
210.39        9.103081
210.85        11.13288
211.31        14.58976
211.77        20.74026
212.23        34.34191
212.69        68.44125
213.14        128.1614
213.60        130.3869
214.06        90.54846
214.52        62.85717
214.98        51.46586
215.44        48.01059
215.90        47.31237
216.36        47.39993
216.81        45.67972
217.27        41.34666
217.73        35.00112
218.19        26.72783
218.65        20.80607
219.11        21.05187
219.57        24.50582
220.02        28.65918
220.48         33.4627
220.94        39.66901
221.40         48.7241
221.86        60.49382
222.32        67.49717
222.77        63.42017
223.23        53.77703
223.69        44.00939
224.15        37.01681
224.61        32.46281
225.06        29.11388
225.52        27.31002
225.98        27.36274
226.44        28.95407
226.90        31.94898
227.36        34.95328
227.81        35.54667
228.27        33.58071
228.73        29.97515
229.19        26.79463
229.65        26.44252
230.10        28.95839
230.56        33.42836
231.02        37.97547
231.48          39.573
231.93        37.74623
232.39        34.06507
232.85        30.30137
233.31        28.70105
233.77        29.52565
234.22         31.9341
234.68        34.93015
235.14        37.11216
235.60        38.00048
236.05        38.08183
236.51        37.58295
236.97        36.91924
237.43        36.39491
237.88        35.87527
238.34        35.58389
238.80        36.16804
239.26        37.92518
239.71        41.33355
240.17        46.20913
240.63        51.49855
241.08        56.26924
241.54        59.79105
242.00        62.71731
242.46        67.39725
242.91        75.87109
243.37        88.85609
243.83        106.1524
244.28        118.5382
244.74        113.8849
245.20        94.54694
245.66        73.30158
246.11         59.7042
246.57        53.85488
247.03        52.32266
247.48        53.56669
247.94        54.96402
248.40        55.39482
248.85        55.47702
249.31        55.11422
249.77        53.46835
250.22        50.14505
250.68        44.57606
251.14        37.24183
251.59        31.89899
252.05         31.7924
252.51          36.134
252.96         41.4148
253.42         44.3274
253.88        44.89171
254.33        43.96758
254.79        44.24437
255.25        48.02725
255.70        54.98789
256.16        64.10387
256.62        71.64921
257.07        72.06855
257.53        67.03957
257.99        60.26943
258.44        54.84892
258.90        53.42569
259.35        54.80037
259.81        57.77603
260.27        60.60891
260.72        61.19611
261.18        59.73536
261.63        57.05655
262.09        54.51643
262.55         53.0119
263.00         52.4412
263.46        52.44736
263.91        52.33409
264.37        51.54678
264.83        50.03312
265.28        48.10388
265.74        46.30076
266.19        44.97337
266.65        44.22234
267.11        43.77893
267.56        43.44107
268.02        42.91265
268.47        42.11607
268.93        41.21116
269.38        40.21112
269.84        39.17592
270.30        38.13404
270.75         37.0421
271.21        36.07564
271.66        35.45404
272.12        35.19123
272.57        35.19647
273.03        35.18682
273.48        34.69995
273.94        33.71151
274.39        32.36557
274.85        31.03862
275.31        30.12763
275.76        29.67746
276.22        29.56277
276.67        29.54644
277.13        29.36671
277.58        28.92208
278.04          28.345
278.49        27.69631
278.95        27.16418
279.40        26.74617
279.86        26.42982
280.31        26.12419
280.77        25.80262
281.22        25.41837
281.68        25.04015
282.13        24.67713
282.59        24.40556
283.04        24.21075
283.50        24.09534
283.95        24.00907
284.41         23.8849
284.86         23.7171
285.32        23.55368
285.77        23.45066
286.22        23.54109
286.68        23.83102
287.13        24.22816
287.59        24.64886
288.04        24.92554
288.50        25.03258
288.95        24.99475
289.41        24.87284
289.86        24.69673
290.32        24.53438
290.77        24.38565
291.22        24.30851
291.68        24.37067
292.13        24.59165
292.59        24.99299
293.04        25.57351
293.50        26.33612
293.95        27.25592
294.40        28.31773
294.86        29.49286
295.31        30.73096
295.77        32.01495
296.22        33.33343
296.68        34.67499
297.13        36.01604
297.58         37.3718
298.04        38.75794
298.49        40.21682
298.95        41.83162
299.40        43.60033
299.85          45.497
300.31        47.46732
300.76        49.40522
301.21        51.29008
301.67        53.16406
302.12        55.02047
302.58         56.9371
303.03        58.88171
303.48        60.84786
303.94        62.84526
304.39        64.82992
304.84         66.8163
305.30        68.82295
305.75        70.79189
306.20         72.7205
306.66        74.61796
307.11        76.45084
307.57         78.2374
308.02        79.90077
308.47        81.46127
308.93        82.93903
309.38        84.37357
309.83        85.94312
310.29          87.673
310.74        89.50271
311.19        91.26606
311.65        92.66035
312.10        93.59847
312.55        94.16992
313.00        94.59824
313.46         95.2394
313.91        96.15958
314.36         97.2868
314.82        98.44124
315.27        99.34395
315.72        99.89512
316.18        100.2063
316.63        100.3971
317.08        100.7008
317.53        101.1835
317.99        101.7666
318.44        102.3551
318.89        102.7682
319.35        102.9596
319.80        102.9975
320.25        102.9997
320.70        103.1499
321.16        103.4896
321.61        103.9996
322.06        104.5476
322.51        104.9264
322.97        105.0694
323.42        105.0403
323.87        105.0056
324.32        105.2589
324.78        105.8242
325.23        106.6859
325.68        107.5354
326.13        107.8726
326.59        107.5855
327.04         106.863
327.49        106.0743
327.94        105.8322
328.39        106.2841
328.85        107.2095
329.30        108.3953
329.75        109.1976
330.20        109.4029
330.66        109.1744
331.11        108.7941
331.56        108.6366
332.01        108.8377
332.46        109.2573
332.92        109.7463
333.37         110.229
333.82        110.5901
334.27        110.9176
334.72         111.224
335.17        111.5004
335.63        111.7562
336.08        112.0434
336.53        112.4184
336.98        113.0329
337.43         113.903
337.88        114.9454
338.34        116.0411
338.79        117.1113
339.24        118.0235
339.69         118.791
340.14        119.2985
340.59        119.3842
341.05        119.0959
341.50         118.512
341.95        117.9158
342.40        117.7347
342.85        118.0775
343.30        118.8343
343.75        119.8226
344.20        120.7155
344.66        121.3905
345.11        121.9198
345.56         122.322
346.01        122.6417
346.46        122.9147
346.91        123.1176
347.36        123.2854
347.81        123.5012
348.26        123.7741
348.72         124.075
349.17        124.3918
349.62         124.732
350.07          125.08
350.52        125.4609
350.97        125.7216
351.42        125.6221
351.87        125.1465
352.32        124.3644
352.77        123.6084
353.22        123.3669
353.67        123.7132
354.13        124.5049
354.58         125.339
355.03        125.4972
355.48        124.8178
355.93        123.5265
356.38        122.1253
356.83        121.3686
357.28        121.4016
357.73        121.9648
358.18        122.6004
358.63        122.5718
359.08        121.6938
359.53        120.2274
359.98        118.5531
360.43        117.2162
360.88        116.3577
361.33        115.8106
361.78        115.3521
362.23        114.6429
362.68        113.6135
363.13        112.4113
363.58        111.2346
364.03        110.3599
364.48        109.8358
364.93        109.5383
365.38        109.2982
365.83        108.8622
366.28         108.159
366.73        107.2771
367.18        106.3062
367.63        105.3815
368.08        104.5508
368.53        103.7697
368.98         103.032
369.43         102.328
369.88        101.6483
370.33        101.0108
370.78         100.388
371.23        99.73084
371.68        99.03064
372.13        98.28663
372.58        97.55154
373.03        96.91172
373.48        96.37263
373.93        95.90245
374.38        95.40626
374.83        94.73918
375.28        93.88261
375.72         92.8768
376.17        91.89121
376.62        91.06539
377.07        90.44867
377.52        90.01646
377.97        89.69003
378.42        89.35315
378.87        88.96679
379.32        88.52761
379.77        88.14275
380.22        87.96795
380.67        87.99845
381.11        88.20701
381.56        88.27807
382.01         87.7967
382.46        86.73592
382.91        85.30843
383.36        83.93103
383.81        83.16746
384.26         83.0974
384.71        83.51978
385.15        84.14735
385.60        84.47341
386.05        84.33575
386.50        83.88333
386.95        83.22195
387.40        82.52574
387.85        81.88441
388.29        81.20109
388.74        80.62737
389.19        80.16997
389.64        79.82365
390.09         79.5869
390.54         79.4063
390.98        79.16366
391.43        78.87329
391.88        78.54771
392.33        78.23325
392.78        77.97502
393.23        77.77472
393.67        77.64104
394.12        77.58621
394.57        77.32217
395.02        76.90563
395.47        76.70261
395.91        76.70528
396.36        76.55167
396.81        76.25658
397.26         76.0321
397.71        75.86407
398.15        75.64091
398.60         75.4531
399.05        75.16383
399.50        74.83362
399.95        74.83858
400.39        75.08395
400.84        74.79128
401.29        74.04867
401.74        73.80508
402.18         74.0053
402.63        73.66611
403.08         72.9153
403.53        72.61773
403.97        72.80298
404.42         73.0451
404.87        73.20136
405.32        73.17678
405.76        72.91858
406.21        72.57219
406.66        72.20682
407.11        71.82932
407.55        71.58916
408.00        71.62103
408.45        71.88661
408.90        72.31527
409.34        72.64184
409.79         72.2606
410.24        71.38617
410.68        70.93652
411.13        70.99454
411.58        71.04651
412.03        70.99141
412.47        70.91437
412.92        70.76942
413.37        70.56789
413.81        70.38303
414.26         70.3894
414.71        70.58067
415.15         70.9303
415.60        71.29739
416.05        71.51643
416.49        71.53252
416.94        71.38097
417.39        71.15247
417.83        70.97181
418.28        70.88879
418.73        70.88089
419.17        70.90817
419.62        70.90672
420.07        70.85096
420.51        70.73819
420.96        70.66262
421.41        70.66956
421.85        70.72856
422.30         70.9856
422.74        71.23775
423.19         71.0447
423.64        70.48228
424.08        70.22227
424.53        70.31271
424.98        70.36179
425.42        70.38491
425.87        70.62357
426.31        70.99551
426.76        71.17799
427.21         71.1521
427.65        71.01331
428.10        70.79709
428.54        70.73504
428.99        70.90179
429.44        70.74541
429.88        70.47763
430.33        71.32013
430.77        72.75812
431.22        73.12789
431.66        72.40212
432.11        71.65014
432.56        71.18885
433.00        71.07498
433.45         71.5071
433.89        72.36732
434.34        72.78795
434.78        74.27929
435.23        72.40468
435.67        70.55907
436.12        71.14719
436.57        71.30847
437.01        71.78262
437.46        72.05391
437.90        72.19206
438.35        71.28863
438.79        71.84232
439.24        71.82398
439.68        71.91924
440.13        72.14236
440.57        72.48516
441.02         72.5867
441.46        72.44582
441.91        72.85183
442.35        73.48744
442.80         73.2317
443.24        72.30067
443.69        72.29874
444.13        73.14314
444.58         73.5173
445.02        73.37225
445.47         73.4567
445.91        73.78497
446.36        74.06598
446.80         74.2722
447.24        74.47081
447.69        74.64452
448.13        74.74809
448.58        74.79256
449.02        74.76273
449.47        74.68913
449.91        74.58872
450.36        74.50035
450.80        74.40482
451.25        74.34112
451.69         74.3059
452.13        74.31387
452.58        74.35151
453.02        74.40238
453.47        74.44839
453.91        74.47051
454.36        74.47758
454.80        74.43079
455.24        74.24805
455.69        73.94165
456.13        73.57781
456.58        73.27744
457.02        72.90868
457.46         72.6226
457.91        72.84681
458.35        73.31096
458.79        73.26962
459.24        72.72006
459.68        71.93051
460.13        71.21404
460.57         71.0517
461.01        71.11388
461.46          71.611
461.90        72.19732
462.34         72.7117
462.79        72.43799
463.23         72.4917
463.68         72.6145
464.12        72.46753
464.56        72.00484
465.01        71.30368
465.45        70.54395
465.89        70.24995
466.34        70.34659
466.78        70.56978
467.22        70.86306
467.67        70.21725
468.11        70.19333
468.55        70.22057
468.99        70.63582
469.44        70.67532
469.88        70.32406
470.32        70.00261
470.77        69.78855
471.21        69.64665
471.65        69.58861
472.10        69.62388
472.54        69.70261
472.98        69.71427
473.42         69.6203
473.87        69.59809
474.31        69.56374
474.75        69.14301
475.20        68.49957
475.64        68.36654
476.08        68.74749
476.52        68.73961
476.97        68.24099
477.41        68.57381
477.85        68.84429
478.29        68.16032
478.74        68.79359
479.18        69.15228
479.62        68.88059
480.06        68.86523
480.50        68.79192
480.95        68.65408
481.39        68.44746
481.83        68.37292
482.27        67.99223
482.72        68.56339
483.16        68.29842
483.60        68.40944
484.04        68.38612
484.48        68.58669
484.93        68.59559
485.37        68.43501
485.81        68.00024
486.25        67.69012
486.69        70.03769
487.14        70.14927
487.58         68.4065
488.02        68.53992
488.46        67.61848
488.90         67.2013
489.34        68.45604
489.79        69.23664
490.23        68.53191
490.67        67.98096
491.11          67.438
491.55        67.31671
491.99        67.55328
492.43        67.52317
492.88        67.23656
493.32        67.22567
493.76        67.48205
494.20        67.66036
494.64        67.71554
495.08        67.76144
495.52        67.78612
495.96        67.70113
496.41         67.5323
496.85        67.47838
497.29        67.41039
497.73        67.33322
498.17        66.49622
498.61        66.37811
499.05        66.71949
499.49        67.09524
499.93        67.15411
500.37        67.26887
500.82        67.35174
501.26        67.30763
501.70        67.17524
502.14        67.14964
502.58        67.26396
503.02        67.19216
503.46        67.29884
503.90        67.40407
504.34        67.54383
504.78         67.5299
505.22        67.34383
505.66        67.02303
506.10        66.68121
506.54        66.54211
506.98        66.60892
507.42        66.74754
507.86        66.84254
508.30        66.82652
508.74        66.89885
509.18        66.81644
509.62        66.68494
510.06         66.5919
510.50        66.55845
510.94        66.54647
511.38        66.54653
511.82        66.55333
512.26        66.56165
512.70        66.58543
513.14        66.60976
513.58        66.60455
514.02        66.56846
514.46         66.5072
514.90        66.46036
515.34        66.49321
515.78        66.61282
516.22        66.79302
516.66        66.97395
517.10        67.05951
517.54        67.02438
517.98        66.90069
518.42        66.73602
518.86        66.58964
519.30        66.48487
519.74        66.45866
520.18        66.49349
520.62        66.43224
521.06        66.32784
521.50        66.48109
521.93        66.82584
522.37        66.97088
522.81         66.8876
523.25        66.76176
523.69        66.66281
524.13        66.62837
524.57        66.67633
525.01        66.78545
525.45        66.89063
525.89         66.8872
526.32        66.74724
526.76        66.53016
527.20        66.28384
527.64        66.08813
528.08        65.97067
528.52        65.90522
528.96        65.89188
529.40        65.93097
529.83        66.00857
530.27        66.13118
530.71         66.2511
531.15        66.29784
531.59        66.25837
532.03        66.14637
532.46         66.0025
532.90        65.94186
533.34        65.97446
533.78        66.02993
534.22        66.06643
534.66        66.10084
535.09        66.07112
535.53        65.85049
535.97        65.50045
536.41        65.28667
536.85          65.244
537.28        65.24191
537.72        65.27752
538.16        65.39537
538.60        65.57707
539.04        65.80307
539.47         66.0063
539.91        66.12665
540.35        66.13567
540.79        66.05502
541.22        65.92665
541.66        65.84463
542.10        65.82589
542.54        65.84405
542.97        65.86723
543.41         65.8755
543.85        65.84908
544.29        65.81062
544.72        65.74898
545.16        65.67787
545.60        65.59478
546.04        65.52233
546.47        65.48932
546.91        65.51851
547.35        65.62933
547.79        65.82832
548.22        66.05692
548.66        66.25909
549.10        66.42479
549.53        66.32858
549.97        66.04688
550.41        65.77814
550.84        65.63654
551.28        65.62757
551.72        65.67554
552.15        65.78269
552.59        66.00975
553.03        65.40436
553.46        65.93183
553.90        65.84116
554.34        65.69907
554.77         65.5564
555.21         65.5041
555.65        65.37887
556.08        65.55291
556.52        65.70065
556.96        65.84076
557.39        65.89408
557.83        65.83663
558.27        65.54903
558.70        65.13868
559.14        64.99062
559.57        65.09651
560.01        65.21542
560.45        65.31595
560.88        65.47033
561.32         65.6789
561.75        65.91533
562.19        66.12531
562.63        66.05069
563.06        65.75018
563.50        65.62075
563.93        65.62305
564.37        65.56303
564.80        65.47676
565.24        65.38316
565.68        65.15918
566.11        65.88962
566.55        65.19086
566.98        65.13264
567.42        65.16667
567.85        65.03838
568.29        65.49554
568.72         65.8406
569.16        66.29961
569.60        66.45326
570.03        66.50143
570.47        66.59978
570.90        66.90402
571.34        65.99175
571.77        66.73856
572.21         66.7908
572.64        66.67489
573.08         67.1263
573.51        66.14207
573.95        66.20211
574.38        66.81229
574.82        66.99088
